! Initial file:   D:\ZAKARY_OUAIL\MA_THESE\Deuxième_année_de_thèse\DRX\Manips_DRX\1st_NaTaO2F2_XRK900\NaTaO2F2-Lent_100°C.xrdml
! Initial format:  58
! WAVE (A):      1.54060     1.54060     1.00000
! REM : data have been multiplied by     1.0000
! X_data : 2 Theta (deg.)                                                                                                                                                                                                                                                  
! Y_data : Intensity (arb. units)                                                                                                                                                                                                                                          
!     X         Y
!--------------------------------------------------------------------------------
    10.0116     7149.00000
    10.0247     7167.00000
    10.0379     7013.00000
    10.0510     6916.00000
    10.0641     7047.00000
    10.0772     7064.00000
    10.0904     7027.00000
    10.1035     6989.00000
    10.1166     6938.00000
    10.1298     6908.00000
    10.1429     6928.00000
    10.1560     6986.00000
    10.1692     6933.00000
    10.1823     7182.00000
    10.1954     6898.00000
    10.2086     6917.00000
    10.2217     6912.00000
    10.2348     6802.00000
    10.2479     7003.00000
    10.2611     6887.00000
    10.2742     7009.00000
    10.2873     7067.00000
    10.3005     6837.00000
    10.3136     6840.00000
    10.3267     6878.00000
    10.3399     6747.00000
    10.3530     6912.00000
    10.3661     6893.00000
    10.3792     6889.00000
    10.3924     6894.00000
    10.4055     6855.00000
    10.4186     6841.00000
    10.4318     6777.00000
    10.4449     6815.00000
    10.4580     6941.00000
    10.4712     6791.00000
    10.4843     6825.00000
    10.4974     6866.00000
    10.5105     6842.00000
    10.5237     6762.00000
    10.5368     6715.00000
    10.5499     6744.00000
    10.5631     6673.00000
    10.5762     6805.00000
    10.5893     6868.00000
    10.6025     6667.00000
    10.6156     6629.00000
    10.6287     6826.00000
    10.6418     6773.00000
    10.6550     6818.00000
    10.6681     6813.00000
    10.6812     6914.00000
    10.6944     6818.00000
    10.7075     6752.00000
    10.7206     6853.00000
    10.7338     6786.00000
    10.7469     6956.00000
    10.7600     6915.00000
    10.7732     6837.00000
    10.7863     6833.00000
    10.7994     6988.00000
    10.8125     7149.00000
    10.8257     6954.00000
    10.8388     7113.00000
    10.8519     7093.00000
    10.8651     7148.00000
    10.8782     6953.00000
    10.8913     7184.00000
    10.9045     7167.00000
    10.9176     7383.00000
    10.9307     7479.00000
    10.9438     7510.00000
    10.9570     7839.00000
    10.9701     8103.00000
    10.9832     8798.00000
    10.9964     9346.00000
    11.0095    10361.00000
    11.0226    11327.00000
    11.0358    13088.00000
    11.0489    16334.00000
    11.0620    21279.00000
    11.0751    27314.00000
    11.0883    34549.00000
    11.1014    43930.00000
    11.1145    50902.00000
    11.1277    51315.00000
    11.1408    48096.00000
    11.1539    40734.00000
    11.1671    33494.00000
    11.1802    27312.00000
    11.1933    20676.00000
    11.2065    16266.00000
    11.2196    12543.00000
    11.2327    10032.00000
    11.2458     8613.00000
    11.2590     8080.00000
    11.2721     7478.00000
    11.2852     7147.00000
    11.2984     7126.00000
    11.3115     7004.00000
    11.3246     7091.00000
    11.3378     6697.00000
    11.3509     6858.00000
    11.3640     6792.00000
    11.3771     6687.00000
    11.3903     6588.00000
    11.4034     6638.00000
    11.4165     6638.00000
    11.4297     6591.00000
    11.4428     6500.00000
    11.4559     6518.00000
    11.4691     6543.00000
    11.4822     6480.00000
    11.4953     6718.00000
    11.5084     6531.00000
    11.5216     6553.00000
    11.5347     6609.00000
    11.5478     6404.00000
    11.5610     6370.00000
    11.5741     6341.00000
    11.5872     6344.00000
    11.6004     6518.00000
    11.6135     6593.00000
    11.6266     6354.00000
    11.6398     6573.00000
    11.6529     6349.00000
    11.6660     6386.00000
    11.6791     6286.00000
    11.6923     6411.00000
    11.7054     6370.00000
    11.7185     6250.00000
    11.7317     6240.00000
    11.7448     6412.00000
    11.7579     6344.00000
    11.7711     6359.00000
    11.7842     6380.00000
    11.7973     6229.00000
    11.8104     6294.00000
    11.8236     6424.00000
    11.8367     6287.00000
    11.8498     6351.00000
    11.8630     6402.00000
    11.8761     6313.00000
    11.8892     6234.00000
    11.9024     6194.00000
    11.9155     6105.00000
    11.9286     6108.00000
    11.9417     6202.00000
    11.9549     6273.00000
    11.9680     6299.00000
    11.9811     6204.00000
    11.9943     6275.00000
    12.0074     6126.00000
    12.0205     6273.00000
    12.0337     6216.00000
    12.0468     6332.00000
    12.0599     6096.00000
    12.0731     6333.00000
    12.0862     6390.00000
    12.0993     6275.00000
    12.1124     6182.00000
    12.1256     6370.00000
    12.1387     6090.00000
    12.1518     6075.00000
    12.1650     6114.00000
    12.1781     6234.00000
    12.1912     6105.00000
    12.2044     6076.00000
    12.2175     6169.00000
    12.2306     6118.00000
    12.2437     6157.00000
    12.2569     5992.00000
    12.2700     6022.00000
    12.2831     6083.00000
    12.2963     6128.00000
    12.3094     6123.00000
    12.3225     6134.00000
    12.3357     6099.00000
    12.3488     6064.00000
    12.3619     6158.00000
    12.3750     6031.00000
    12.3882     6043.00000
    12.4013     6009.00000
    12.4144     6019.00000
    12.4276     6123.00000
    12.4407     5997.00000
    12.4538     6024.00000
    12.4670     5987.00000
    12.4801     6001.00000
    12.4932     5959.00000
    12.5063     5997.00000
    12.5195     5981.00000
    12.5326     6092.00000
    12.5457     6091.00000
    12.5589     6065.00000
    12.5720     6032.00000
    12.5851     6056.00000
    12.5983     5974.00000
    12.6114     6089.00000
    12.6245     5894.00000
    12.6377     5836.00000
    12.6508     6019.00000
    12.6639     5825.00000
    12.6770     5978.00000
    12.6902     5916.00000
    12.7033     5805.00000
    12.7164     5855.00000
    12.7296     5930.00000
    12.7427     5834.00000
    12.7558     5992.00000
    12.7690     5895.00000
    12.7821     5933.00000
    12.7952     5857.00000
    12.8083     5888.00000
    12.8215     5731.00000
    12.8346     6012.00000
    12.8477     5755.00000
    12.8609     5886.00000
    12.8740     5883.00000
    12.8871     6012.00000
    12.9003     5900.00000
    12.9134     5899.00000
    12.9265     5977.00000
    12.9396     5756.00000
    12.9528     5680.00000
    12.9659     5861.00000
    12.9790     5932.00000
    12.9922     5906.00000
    13.0053     5818.00000
    13.0184     5709.00000
    13.0316     5914.00000
    13.0447     5873.00000
    13.0578     5763.00000
    13.0710     5759.00000
    13.0841     5730.00000
    13.0972     5833.00000
    13.1103     5791.00000
    13.1235     5744.00000
    13.1366     5891.00000
    13.1497     5844.00000
    13.1629     5669.00000
    13.1760     5882.00000
    13.1891     5825.00000
    13.2023     5868.00000
    13.2154     5818.00000
    13.2285     5912.00000
    13.2416     5729.00000
    13.2548     5778.00000
    13.2679     5632.00000
    13.2810     5856.00000
    13.2942     5791.00000
    13.3073     5784.00000
    13.3204     5652.00000
    13.3336     5805.00000
    13.3467     5801.00000
    13.3598     5708.00000
    13.3729     5654.00000
    13.3861     5700.00000
    13.3992     5674.00000
    13.4123     5820.00000
    13.4255     5579.00000
    13.4386     5611.00000
    13.4517     5651.00000
    13.4649     5694.00000
    13.4780     5667.00000
    13.4911     5696.00000
    13.5043     5766.00000
    13.5174     5788.00000
    13.5305     5715.00000
    13.5436     5420.00000
    13.5568     5754.00000
    13.5699     5562.00000
    13.5830     5826.00000
    13.5962     5643.00000
    13.6093     5552.00000
    13.6224     5657.00000
    13.6356     5683.00000
    13.6487     5628.00000
    13.6618     5727.00000
    13.6749     5475.00000
    13.6881     5539.00000
    13.7012     5415.00000
    13.7143     5556.00000
    13.7275     5554.00000
    13.7406     5477.00000
    13.7537     5585.00000
    13.7669     5459.00000
    13.7800     5531.00000
    13.7931     5432.00000
    13.8062     5436.00000
    13.8194     5432.00000
    13.8325     5611.00000
    13.8456     5487.00000
    13.8588     5492.00000
    13.8719     5471.00000
    13.8850     5608.00000
    13.8982     5482.00000
    13.9113     5434.00000
    13.9244     5486.00000
    13.9376     5378.00000
    13.9507     5476.00000
    13.9638     5467.00000
    13.9769     5335.00000
    13.9901     5570.00000
    14.0032     5432.00000
    14.0163     5357.00000
    14.0295     5512.00000
    14.0426     5556.00000
    14.0557     5389.00000
    14.0689     5390.00000
    14.0820     5516.00000
    14.0951     5461.00000
    14.1082     5374.00000
    14.1214     5378.00000
    14.1345     5390.00000
    14.1476     5482.00000
    14.1608     5399.00000
    14.1739     5439.00000
    14.1870     5384.00000
    14.2002     5434.00000
    14.2133     5305.00000
    14.2264     5450.00000
    14.2395     5408.00000
    14.2527     5299.00000
    14.2658     5514.00000
    14.2789     5507.00000
    14.2921     5398.00000
    14.3052     5419.00000
    14.3183     5524.00000
    14.3315     5338.00000
    14.3446     5454.00000
    14.3577     5335.00000
    14.3708     5439.00000
    14.3840     5442.00000
    14.3971     5377.00000
    14.4102     5244.00000
    14.4234     5324.00000
    14.4365     5427.00000
    14.4496     5210.00000
    14.4628     5309.00000
    14.4759     5229.00000
    14.4890     5244.00000
    14.5022     5342.00000
    14.5153     5347.00000
    14.5284     5314.00000
    14.5415     5271.00000
    14.5547     5548.00000
    14.5678     5293.00000
    14.5809     5265.00000
    14.5941     5236.00000
    14.6072     5351.00000
    14.6203     5197.00000
    14.6335     5412.00000
    14.6466     5375.00000
    14.6597     5171.00000
    14.6728     5271.00000
    14.6860     5274.00000
    14.6991     5141.00000
    14.7122     5195.00000
    14.7254     5379.00000
    14.7385     5241.00000
    14.7516     5273.00000
    14.7648     5267.00000
    14.7779     5126.00000
    14.7910     5285.00000
    14.8041     5328.00000
    14.8173     5141.00000
    14.8304     5413.00000
    14.8435     5200.00000
    14.8567     5320.00000
    14.8698     5279.00000
    14.8829     5196.00000
    14.8961     5144.00000
    14.9092     5162.00000
    14.9223     5122.00000
    14.9355     5150.00000
    14.9486     5215.00000
    14.9617     5411.00000
    14.9748     5185.00000
    14.9880     5179.00000
    15.0011     5229.00000
    15.0142     5424.00000
    15.0274     5449.00000
    15.0405     5179.00000
    15.0536     5068.00000
    15.0668     5217.00000
    15.0799     5146.00000
    15.0930     5068.00000
    15.1061     5253.00000
    15.1193     5161.00000
    15.1324     5233.00000
    15.1455     5096.00000
    15.1587     5199.00000
    15.1718     4994.00000
    15.1849     5041.00000
    15.1981     5110.00000
    15.2112     5130.00000
    15.2243     5234.00000
    15.2374     5195.00000
    15.2506     5126.00000
    15.2637     5136.00000
    15.2768     5243.00000
    15.2900     4975.00000
    15.3031     5160.00000
    15.3162     5171.00000
    15.3294     5155.00000
    15.3425     5239.00000
    15.3556     5250.00000
    15.3688     5034.00000
    15.3819     5072.00000
    15.3950     5127.00000
    15.4081     5148.00000
    15.4213     5054.00000
    15.4344     5143.00000
    15.4475     5151.00000
    15.4607     5073.00000
    15.4738     5172.00000
    15.4869     5173.00000
    15.5001     5181.00000
    15.5132     5279.00000
    15.5263     5109.00000
    15.5394     5075.00000
    15.5526     4996.00000
    15.5657     5189.00000
    15.5788     5130.00000
    15.5920     5105.00000
    15.6051     5088.00000
    15.6182     4987.00000
    15.6314     5049.00000
    15.6445     5012.00000
    15.6576     4988.00000
    15.6707     5044.00000
    15.6839     5011.00000
    15.6970     5014.00000
    15.7101     5038.00000
    15.7233     5008.00000
    15.7364     5076.00000
    15.7495     4998.00000
    15.7627     5096.00000
    15.7758     5032.00000
    15.7889     5115.00000
    15.8021     4981.00000
    15.8152     5103.00000
    15.8283     5054.00000
    15.8414     4917.00000
    15.8546     5090.00000
    15.8677     5103.00000
    15.8808     5060.00000
    15.8940     4972.00000
    15.9071     4980.00000
    15.9202     5049.00000
    15.9334     4896.00000
    15.9465     5090.00000
    15.9596     4968.00000
    15.9727     4978.00000
    15.9859     4969.00000
    15.9990     4876.00000
    16.0121     5019.00000
    16.0253     4999.00000
    16.0384     5030.00000
    16.0515     4993.00000
    16.0647     5019.00000
    16.0778     5062.00000
    16.0909     4997.00000
    16.1040     4998.00000
    16.1172     5179.00000
    16.1303     5086.00000
    16.1434     5051.00000
    16.1566     5133.00000
    16.1697     5032.00000
    16.1828     5252.00000
    16.1960     5053.00000
    16.2091     5051.00000
    16.2222     5148.00000
    16.2353     5115.00000
    16.2485     5196.00000
    16.2616     5125.00000
    16.2747     5097.00000
    16.2879     5150.00000
    16.3010     5072.00000
    16.3141     5226.00000
    16.3273     5034.00000
    16.3404     5139.00000
    16.3535     5063.00000
    16.3667     5124.00000
    16.3798     5087.00000
    16.3929     5072.00000
    16.4060     5083.00000
    16.4192     5166.00000
    16.4323     5144.00000
    16.4454     5172.00000
    16.4586     5043.00000
    16.4717     5291.00000
    16.4848     5114.00000
    16.4980     5145.00000
    16.5111     5121.00000
    16.5242     5112.00000
    16.5373     4998.00000
    16.5505     5045.00000
    16.5636     5191.00000
    16.5767     4977.00000
    16.5899     5004.00000
    16.6030     4876.00000
    16.6161     4865.00000
    16.6293     4958.00000
    16.6424     4988.00000
    16.6555     4971.00000
    16.6686     4826.00000
    16.6818     4821.00000
    16.6949     4839.00000
    16.7080     4724.00000
    16.7212     4891.00000
    16.7343     4914.00000
    16.7474     4905.00000
    16.7606     4970.00000
    16.7737     4881.00000
    16.7868     4839.00000
    16.8000     4940.00000
    16.8131     4782.00000
    16.8262     4776.00000
    16.8393     4853.00000
    16.8525     4765.00000
    16.8656     4780.00000
    16.8787     4784.00000
    16.8919     4769.00000
    16.9050     4951.00000
    16.9181     4728.00000
    16.9313     4820.00000
    16.9444     4982.00000
    16.9575     4735.00000
    16.9706     4743.00000
    16.9838     4708.00000
    16.9969     4744.00000
    17.0100     4773.00000
    17.0232     4841.00000
    17.0363     4823.00000
    17.0494     4752.00000
    17.0626     4869.00000
    17.0757     4805.00000
    17.0888     4845.00000
    17.1019     4908.00000
    17.1151     4775.00000
    17.1282     4748.00000
    17.1413     4771.00000
    17.1545     4889.00000
    17.1676     4706.00000
    17.1807     4922.00000
    17.1939     4837.00000
    17.2070     4941.00000
    17.2201     5007.00000
    17.2333     4964.00000
    17.2464     4999.00000
    17.2595     4959.00000
    17.2726     4990.00000
    17.2858     4913.00000
    17.2989     5052.00000
    17.3120     4898.00000
    17.3252     5000.00000
    17.3383     4887.00000
    17.3514     4914.00000
    17.3646     4726.00000
    17.3777     4930.00000
    17.3908     4726.00000
    17.4039     4831.00000
    17.4171     4742.00000
    17.4302     4684.00000
    17.4433     4677.00000
    17.4565     4763.00000
    17.4696     4706.00000
    17.4827     4694.00000
    17.4959     4876.00000
    17.5090     4630.00000
    17.5221     4595.00000
    17.5352     4631.00000
    17.5484     4603.00000
    17.5615     4764.00000
    17.5746     4730.00000
    17.5878     4772.00000
    17.6009     4609.00000
    17.6140     4645.00000
    17.6272     4630.00000
    17.6403     4656.00000
    17.6534     4759.00000
    17.6666     4624.00000
    17.6797     4590.00000
    17.6928     4709.00000
    17.7059     4496.00000
    17.7191     4605.00000
    17.7322     4813.00000
    17.7453     4857.00000
    17.7585     4776.00000
    17.7716     4880.00000
    17.7847     4915.00000
    17.7979     4806.00000
    17.8110     4972.00000
    17.8241     4839.00000
    17.8372     4621.00000
    17.8504     4749.00000
    17.8635     4711.00000
    17.8766     4604.00000
    17.8898     4616.00000
    17.9029     4689.00000
    17.9160     4475.00000
    17.9292     4508.00000
    17.9423     4563.00000
    17.9554     4526.00000
    17.9685     4524.00000
    17.9817     4511.00000
    17.9948     4638.00000
    18.0079     4462.00000
    18.0211     4522.00000
    18.0342     4713.00000
    18.0473     4709.00000
    18.0605     4586.00000
    18.0736     4515.00000
    18.0867     4531.00000
    18.0998     4586.00000
    18.1130     4497.00000
    18.1261     4492.00000
    18.1392     4490.00000
    18.1524     4434.00000
    18.1655     4523.00000
    18.1786     4452.00000
    18.1918     4598.00000
    18.2049     4625.00000
    18.2180     4447.00000
    18.2312     4538.00000
    18.2443     4602.00000
    18.2574     4614.00000
    18.2705     4475.00000
    18.2837     4507.00000
    18.2968     4355.00000
    18.3099     4400.00000
    18.3231     4492.00000
    18.3362     4483.00000
    18.3493     4492.00000
    18.3625     4483.00000
    18.3756     4487.00000
    18.3887     4341.00000
    18.4018     4446.00000
    18.4150     4393.00000
    18.4281     4382.00000
    18.4412     4411.00000
    18.4544     4319.00000
    18.4675     4449.00000
    18.4806     4398.00000
    18.4938     4487.00000
    18.5069     4528.00000
    18.5200     4523.00000
    18.5331     4509.00000
    18.5463     4407.00000
    18.5594     4413.00000
    18.5725     4516.00000
    18.5857     4509.00000
    18.5988     4609.00000
    18.6119     4668.00000
    18.6251     4581.00000
    18.6382     4703.00000
    18.6513     4529.00000
    18.6645     4507.00000
    18.6776     4559.00000
    18.6907     4385.00000
    18.7038     4394.00000
    18.7170     4389.00000
    18.7301     4434.00000
    18.7432     4482.00000
    18.7564     4437.00000
    18.7695     4448.00000
    18.7826     4437.00000
    18.7958     4292.00000
    18.8089     4369.00000
    18.8220     4370.00000
    18.8351     4379.00000
    18.8483     4459.00000
    18.8614     4386.00000
    18.8745     4365.00000
    18.8877     4230.00000
    18.9008     4394.00000
    18.9139     4340.00000
    18.9271     4344.00000
    18.9402     4318.00000
    18.9533     4376.00000
