! Initial file:   D:\ZAKARY_OUAIL\MA_THESE\Deuxième_année_de_thèse\DRX\Manips_DRX\1st_NaTaO2F2_XRK900\NaTaO2F2-Lent_120°C.xrdml
! Initial format:  58
! WAVE (A):      1.54060     1.54060     1.00000
! REM : data have been multiplied by     1.0000
! X_data : 2 Theta (deg.)                                                                                                                                                                                                                                                  
! Y_data : Intensity (arb. units)                                                                                                                                                                                                                                          
!     X         Y
!--------------------------------------------------------------------------------
    10.0116     7127.00000
    10.0247     6951.00000
    10.0379     7091.00000
    10.0510     6933.00000
    10.0641     6847.00000
    10.0772     6962.00000
    10.0904     6835.00000
    10.1035     6916.00000
    10.1166     6890.00000
    10.1298     6854.00000
    10.1429     6902.00000
    10.1560     6946.00000
    10.1692     6749.00000
    10.1823     6851.00000
    10.1954     6715.00000
    10.2086     6805.00000
    10.2217     6932.00000
    10.2348     6790.00000
    10.2479     6739.00000
    10.2611     6733.00000
    10.2742     6887.00000
    10.2873     6811.00000
    10.3005     6627.00000
    10.3136     6942.00000
    10.3267     6756.00000
    10.3399     6722.00000
    10.3530     6817.00000
    10.3661     6689.00000
    10.3792     6725.00000
    10.3924     6718.00000
    10.4055     6901.00000
    10.4186     6826.00000
    10.4318     6641.00000
    10.4449     6784.00000
    10.4580     6617.00000
    10.4712     6791.00000
    10.4843     6686.00000
    10.4974     6650.00000
    10.5105     6648.00000
    10.5237     6731.00000
    10.5368     6650.00000
    10.5499     6740.00000
    10.5631     6741.00000
    10.5762     6561.00000
    10.5893     6684.00000
    10.6025     6678.00000
    10.6156     6763.00000
    10.6287     6822.00000
    10.6418     6805.00000
    10.6550     6697.00000
    10.6681     6665.00000
    10.6812     6671.00000
    10.6944     6822.00000
    10.7075     6786.00000
    10.7206     6740.00000
    10.7338     6801.00000
    10.7469     6749.00000
    10.7600     6809.00000
    10.7732     6934.00000
    10.7863     6756.00000
    10.7994     6752.00000
    10.8125     6756.00000
    10.8257     6885.00000
    10.8388     7004.00000
    10.8519     6768.00000
    10.8651     6924.00000
    10.8782     7157.00000
    10.8913     7064.00000
    10.9045     7266.00000
    10.9176     7109.00000
    10.9307     7425.00000
    10.9438     7456.00000
    10.9570     7793.00000
    10.9701     8050.00000
    10.9832     8648.00000
    10.9964     9312.00000
    11.0095    10183.00000
    11.0226    11712.00000
    11.0358    13165.00000
    11.0489    16451.00000
    11.0620    21458.00000
    11.0751    27637.00000
    11.0883    35155.00000
    11.1014    43884.00000
    11.1145    50835.00000
    11.1277    51599.00000
    11.1408    47271.00000
    11.1539    39442.00000
    11.1671    31623.00000
    11.1802    25523.00000
    11.1933    19528.00000
    11.2065    15062.00000
    11.2196    12106.00000
    11.2327     9767.00000
    11.2458     8746.00000
    11.2590     7937.00000
    11.2721     7485.00000
    11.2852     7118.00000
    11.2984     7124.00000
    11.3115     7016.00000
    11.3246     6851.00000
    11.3378     6801.00000
    11.3509     6575.00000
    11.3640     6618.00000
    11.3771     6747.00000
    11.3903     6465.00000
    11.4034     6469.00000
    11.4165     6618.00000
    11.4297     6552.00000
    11.4428     6413.00000
    11.4559     6385.00000
    11.4691     6433.00000
    11.4822     6399.00000
    11.4953     6533.00000
    11.5084     6450.00000
    11.5216     6373.00000
    11.5347     6494.00000
    11.5478     6294.00000
    11.5610     6533.00000
    11.5741     6386.00000
    11.5872     6395.00000
    11.6004     6365.00000
    11.6135     6458.00000
    11.6266     6293.00000
    11.6398     6262.00000
    11.6529     6205.00000
    11.6660     6285.00000
    11.6791     6205.00000
    11.6923     6361.00000
    11.7054     6273.00000
    11.7185     6234.00000
    11.7317     6230.00000
    11.7448     6310.00000
    11.7579     6272.00000
    11.7711     6274.00000
    11.7842     6204.00000
    11.7973     6225.00000
    11.8104     6170.00000
    11.8236     6289.00000
    11.8367     6152.00000
    11.8498     6385.00000
    11.8630     6230.00000
    11.8761     6243.00000
    11.8892     6152.00000
    11.9024     6325.00000
    11.9155     6257.00000
    11.9286     6302.00000
    11.9417     6085.00000
    11.9549     6153.00000
    11.9680     6133.00000
    11.9811     6196.00000
    11.9943     6171.00000
    12.0074     6120.00000
    12.0205     6168.00000
    12.0337     6204.00000
    12.0468     6120.00000
    12.0599     6034.00000
    12.0731     6147.00000
    12.0862     6043.00000
    12.0993     6071.00000
    12.1124     6080.00000
    12.1256     6132.00000
    12.1387     6105.00000
    12.1518     6040.00000
    12.1650     6020.00000
    12.1781     6237.00000
    12.1912     6023.00000
    12.2044     5967.00000
    12.2175     6173.00000
    12.2306     6026.00000
    12.2437     5915.00000
    12.2569     6080.00000
    12.2700     6094.00000
    12.2831     6023.00000
    12.2963     5952.00000
    12.3094     6112.00000
    12.3225     5907.00000
    12.3357     6011.00000
    12.3488     5907.00000
    12.3619     5862.00000
    12.3750     5959.00000
    12.3882     5940.00000
    12.4013     5902.00000
    12.4144     5979.00000
    12.4276     5962.00000
    12.4407     6006.00000
    12.4538     6039.00000
    12.4670     5909.00000
    12.4801     5872.00000
    12.4932     5958.00000
    12.5063     5965.00000
    12.5195     5947.00000
    12.5326     5903.00000
    12.5457     5858.00000
    12.5589     5835.00000
    12.5720     5932.00000
    12.5851     5973.00000
    12.5983     5887.00000
    12.6114     5901.00000
    12.6245     5919.00000
    12.6377     5858.00000
    12.6508     6045.00000
    12.6639     5937.00000
    12.6770     6040.00000
    12.6902     5795.00000
    12.7033     5803.00000
    12.7164     5797.00000
    12.7296     5922.00000
    12.7427     5789.00000
    12.7558     5830.00000
    12.7690     5835.00000
    12.7821     5766.00000
    12.7952     5798.00000
    12.8083     5854.00000
    12.8215     5838.00000
    12.8346     5692.00000
    12.8477     5843.00000
    12.8609     5884.00000
    12.8740     5678.00000
    12.8871     5727.00000
    12.9003     5624.00000
    12.9134     5786.00000
    12.9265     5737.00000
    12.9396     5660.00000
    12.9528     5821.00000
    12.9659     5866.00000
    12.9790     5737.00000
    12.9922     5608.00000
    13.0053     5768.00000
    13.0184     5719.00000
    13.0316     5743.00000
    13.0447     5959.00000
    13.0578     5744.00000
    13.0710     5768.00000
    13.0841     5690.00000
    13.0972     5714.00000
    13.1103     5745.00000
    13.1235     5704.00000
    13.1366     5556.00000
    13.1497     5850.00000
    13.1629     5636.00000
    13.1760     5628.00000
    13.1891     5704.00000
    13.2023     5731.00000
    13.2154     5738.00000
    13.2285     5725.00000
    13.2416     5651.00000
    13.2548     5646.00000
    13.2679     5750.00000
    13.2810     5603.00000
    13.2942     5695.00000
    13.3073     5620.00000
    13.3204     5642.00000
    13.3336     5553.00000
    13.3467     5723.00000
    13.3598     5598.00000
    13.3729     5550.00000
    13.3861     5548.00000
    13.3992     5566.00000
    13.4123     5536.00000
    13.4255     5623.00000
    13.4386     5641.00000
    13.4517     5656.00000
    13.4649     5651.00000
    13.4780     5593.00000
    13.4911     5648.00000
    13.5043     5643.00000
    13.5174     5510.00000
    13.5305     5615.00000
    13.5436     5643.00000
    13.5568     5706.00000
    13.5699     5459.00000
    13.5830     5553.00000
    13.5962     5517.00000
    13.6093     5349.00000
    13.6224     5564.00000
    13.6356     5491.00000
    13.6487     5556.00000
    13.6618     5550.00000
    13.6749     5590.00000
    13.6881     5503.00000
    13.7012     5574.00000
    13.7143     5457.00000
    13.7275     5460.00000
    13.7406     5397.00000
    13.7537     5577.00000
    13.7669     5522.00000
    13.7800     5588.00000
    13.7931     5413.00000
    13.8062     5537.00000
    13.8194     5511.00000
    13.8325     5435.00000
    13.8456     5469.00000
    13.8588     5364.00000
    13.8719     5547.00000
    13.8850     5478.00000
    13.8982     5384.00000
    13.9113     5488.00000
    13.9244     5484.00000
    13.9376     5353.00000
    13.9507     5383.00000
    13.9638     5439.00000
    13.9769     5403.00000
    13.9901     5433.00000
    14.0032     5538.00000
    14.0163     5411.00000
    14.0295     5346.00000
    14.0426     5408.00000
    14.0557     5343.00000
    14.0689     5409.00000
    14.0820     5329.00000
    14.0951     5264.00000
    14.1082     5229.00000
    14.1214     5248.00000
    14.1345     5453.00000
    14.1476     5323.00000
    14.1608     5318.00000
    14.1739     5453.00000
    14.1870     5543.00000
    14.2002     5219.00000
    14.2133     5280.00000
    14.2264     5315.00000
    14.2395     5259.00000
    14.2527     5345.00000
    14.2658     5370.00000
    14.2789     5276.00000
    14.2921     5271.00000
    14.3052     5272.00000
    14.3183     5309.00000
    14.3315     5286.00000
    14.3446     5436.00000
    14.3577     5302.00000
    14.3708     5299.00000
    14.3840     5247.00000
    14.3971     5266.00000
    14.4102     5307.00000
    14.4234     5211.00000
    14.4365     5284.00000
    14.4496     5142.00000
    14.4628     5432.00000
    14.4759     5255.00000
    14.4890     5291.00000
    14.5022     5200.00000
    14.5153     5190.00000
    14.5284     5266.00000
    14.5415     5179.00000
    14.5547     5231.00000
    14.5678     5450.00000
    14.5809     5293.00000
    14.5941     5227.00000
    14.6072     5274.00000
    14.6203     5201.00000
    14.6335     5207.00000
    14.6466     5046.00000
    14.6597     5165.00000
    14.6728     5256.00000
    14.6860     5117.00000
    14.6991     5313.00000
    14.7122     5308.00000
    14.7254     5115.00000
    14.7385     5189.00000
    14.7516     5159.00000
    14.7648     5312.00000
    14.7779     5312.00000
    14.7910     5196.00000
    14.8041     5174.00000
    14.8173     5117.00000
    14.8304     5154.00000
    14.8435     5144.00000
    14.8567     5233.00000
    14.8698     5308.00000
    14.8829     5144.00000
    14.8961     5163.00000
    14.9092     5077.00000
    14.9223     5097.00000
    14.9355     5049.00000
    14.9486     5253.00000
    14.9617     5272.00000
    14.9748     5163.00000
    14.9880     5206.00000
    15.0011     5094.00000
    15.0142     5273.00000
    15.0274     5185.00000
    15.0405     5103.00000
    15.0536     5036.00000
    15.0668     5019.00000
    15.0799     5284.00000
    15.0930     5210.00000
    15.1061     5253.00000
    15.1193     5157.00000
    15.1324     5153.00000
    15.1455     5170.00000
    15.1587     5129.00000
    15.1718     4996.00000
    15.1849     4946.00000
    15.1981     5025.00000
    15.2112     5081.00000
    15.2243     5217.00000
    15.2374     5085.00000
    15.2506     4941.00000
    15.2637     4997.00000
    15.2768     5051.00000
    15.2900     5053.00000
    15.3031     5180.00000
    15.3162     5126.00000
    15.3294     5003.00000
    15.3425     5045.00000
    15.3556     5108.00000
    15.3688     5015.00000
    15.3819     5055.00000
    15.3950     5015.00000
    15.4081     5000.00000
    15.4213     5076.00000
    15.4344     5036.00000
    15.4475     4971.00000
    15.4607     5041.00000
    15.4738     5236.00000
    15.4869     5128.00000
    15.5001     4860.00000
    15.5132     5045.00000
    15.5263     4992.00000
    15.5394     4921.00000
    15.5526     4973.00000
    15.5657     4985.00000
    15.5788     4986.00000
    15.5920     5083.00000
    15.6051     4965.00000
    15.6182     4913.00000
    15.6314     5019.00000
    15.6445     4996.00000
    15.6576     5018.00000
    15.6707     4999.00000
    15.6839     5133.00000
    15.6970     4930.00000
    15.7101     4860.00000
    15.7233     4978.00000
    15.7364     4878.00000
    15.7495     4859.00000
    15.7627     5046.00000
    15.7758     5060.00000
    15.7889     5107.00000
    15.8021     4996.00000
    15.8152     4968.00000
    15.8283     4951.00000
    15.8414     4913.00000
    15.8546     4900.00000
    15.8677     4884.00000
    15.8808     4933.00000
    15.8940     4987.00000
    15.9071     4999.00000
    15.9202     4920.00000
    15.9334     4932.00000
    15.9465     4996.00000
    15.9596     4858.00000
    15.9727     4984.00000
    15.9859     4790.00000
    15.9990     4929.00000
    16.0121     5009.00000
    16.0253     4952.00000
    16.0384     5001.00000
    16.0515     5055.00000
    16.0647     5048.00000
    16.0778     4995.00000
    16.0909     4955.00000
    16.1040     4986.00000
    16.1172     5127.00000
    16.1303     5075.00000
    16.1434     4968.00000
    16.1566     5029.00000
    16.1697     4901.00000
    16.1828     5048.00000
    16.1960     5039.00000
    16.2091     5114.00000
    16.2222     5038.00000
    16.2353     5015.00000
    16.2485     5048.00000
    16.2616     5099.00000
    16.2747     4995.00000
    16.2879     4984.00000
    16.3010     5037.00000
    16.3141     5126.00000
    16.3273     5094.00000
    16.3404     4994.00000
    16.3535     5099.00000
    16.3667     5046.00000
    16.3798     5114.00000
    16.3929     5038.00000
    16.4060     5113.00000
    16.4192     5094.00000
    16.4323     5096.00000
    16.4454     5105.00000
    16.4586     5083.00000
    16.4717     5110.00000
    16.4848     5109.00000
    16.4980     5041.00000
    16.5111     5125.00000
    16.5242     5062.00000
    16.5373     5019.00000
    16.5505     4998.00000
    16.5636     4952.00000
    16.5767     4847.00000
    16.5899     4835.00000
    16.6030     4805.00000
    16.6161     4859.00000
    16.6293     4720.00000
    16.6424     4857.00000
    16.6555     4889.00000
    16.6686     4608.00000
    16.6818     4796.00000
    16.6949     4969.00000
    16.7080     4696.00000
    16.7212     4708.00000
    16.7343     4746.00000
    16.7474     4831.00000
    16.7606     4829.00000
    16.7737     4871.00000
    16.7868     4902.00000
    16.8000     4794.00000
    16.8131     4736.00000
    16.8262     4799.00000
    16.8393     4826.00000
    16.8525     4748.00000
    16.8656     4818.00000
    16.8787     4772.00000
    16.8919     4758.00000
    16.9050     4770.00000
    16.9181     4747.00000
    16.9313     4758.00000
    16.9444     4850.00000
    16.9575     4831.00000
    16.9706     4830.00000
    16.9838     4752.00000
    16.9969     4838.00000
    17.0100     4822.00000
    17.0232     4752.00000
    17.0363     4768.00000
    17.0494     4765.00000
    17.0626     4779.00000
    17.0757     4605.00000
    17.0888     4651.00000
    17.1019     4803.00000
    17.1151     4804.00000
    17.1282     4822.00000
    17.1413     4856.00000
    17.1545     4624.00000
    17.1676     4913.00000
    17.1807     4594.00000
    17.1939     4788.00000
    17.2070     4861.00000
    17.2201     4809.00000
    17.2333     4812.00000
    17.2464     4959.00000
    17.2595     4926.00000
    17.2726     4922.00000
    17.2858     4940.00000
    17.2989     5064.00000
    17.3120     4875.00000
    17.3252     4818.00000
    17.3383     4811.00000
    17.3514     4830.00000
    17.3646     4755.00000
    17.3777     4699.00000
    17.3908     4751.00000
    17.4039     4574.00000
    17.4171     4675.00000
    17.4302     4623.00000
    17.4433     4674.00000
    17.4565     4540.00000
    17.4696     4634.00000
    17.4827     4655.00000
    17.4959     4676.00000
    17.5090     4777.00000
    17.5221     4635.00000
    17.5352     4610.00000
    17.5484     4570.00000
    17.5615     4591.00000
    17.5746     4566.00000
    17.5878     4577.00000
    17.6009     4476.00000
    17.6140     4682.00000
    17.6272     4597.00000
    17.6403     4643.00000
    17.6534     4636.00000
    17.6666     4497.00000
    17.6797     4657.00000
    17.6928     4625.00000
    17.7059     4593.00000
    17.7191     4729.00000
    17.7322     4735.00000
    17.7453     4751.00000
    17.7585     4813.00000
    17.7716     4863.00000
    17.7847     4921.00000
    17.7979     4851.00000
    17.8110     4713.00000
    17.8241     4619.00000
    17.8372     4583.00000
    17.8504     4809.00000
    17.8635     4501.00000
    17.8766     4595.00000
    17.8898     4594.00000
    17.9029     4503.00000
    17.9160     4545.00000
    17.9292     4487.00000
    17.9423     4583.00000
    17.9554     4535.00000
    17.9685     4593.00000
    17.9817     4498.00000
    17.9948     4441.00000
    18.0079     4576.00000
    18.0211     4568.00000
    18.0342     4585.00000
    18.0473     4501.00000
    18.0605     4520.00000
    18.0736     4492.00000
    18.0867     4376.00000
    18.0998     4414.00000
    18.1130     4466.00000
    18.1261     4439.00000
    18.1392     4370.00000
    18.1524     4467.00000
    18.1655     4457.00000
    18.1786     4453.00000
    18.1918     4491.00000
    18.2049     4490.00000
    18.2180     4338.00000
    18.2312     4448.00000
    18.2443     4553.00000
    18.2574     4489.00000
    18.2705     4444.00000
    18.2837     4449.00000
    18.2968     4367.00000
    18.3099     4371.00000
    18.3231     4429.00000
    18.3362     4406.00000
    18.3493     4596.00000
    18.3625     4524.00000
    18.3756     4480.00000
    18.3887     4408.00000
    18.4018     4381.00000
    18.4150     4340.00000
    18.4281     4439.00000
    18.4412     4493.00000
    18.4544     4493.00000
    18.4675     4410.00000
    18.4806     4507.00000
    18.4938     4417.00000
    18.5069     4461.00000
    18.5200     4478.00000
    18.5331     4498.00000
    18.5463     4535.00000
    18.5594     4530.00000
    18.5725     4513.00000
    18.5857     4565.00000
    18.5988     4550.00000
    18.6119     4526.00000
    18.6251     4527.00000
    18.6382     4488.00000
    18.6513     4601.00000
    18.6645     4418.00000
    18.6776     4572.00000
    18.6907     4451.00000
    18.7038     4481.00000
    18.7170     4489.00000
    18.7301     4431.00000
    18.7432     4325.00000
    18.7564     4438.00000
    18.7695     4323.00000
    18.7826     4408.00000
    18.7958     4327.00000
    18.8089     4325.00000
    18.8220     4423.00000
    18.8351     4365.00000
    18.8483     4316.00000
    18.8614     4459.00000
    18.8745     4314.00000
    18.8877     4308.00000
    18.9008     4317.00000
    18.9139     4369.00000
    18.9271     4362.00000
    18.9402     4342.00000
    18.9533     4292.00000
