! Initial file:   D:\ZAKARY_OUAIL\MA_THESE\Deuxième_année_de_thèse\DRX\Manips_DRX\1st_NaTaO2F2_XRK900\NaTaO2F2-Lent_140°C.xrdml
! Initial format:  58
! WAVE (A):      1.54060     1.54060     1.00000
! REM : data have been multiplied by     1.0000
! X_data : 2 Theta (deg.)                                                                                                                                                                                                                                                  
! Y_data : Intensity (arb. units)                                                                                                                                                                                                                                          
!     X         Y
!--------------------------------------------------------------------------------
    10.0116     6876.00000
    10.0247     6939.00000
    10.0379     6753.00000
    10.0510     7052.00000
    10.0641     6801.00000
    10.0772     6753.00000
    10.0904     6747.00000
    10.1035     6794.00000
    10.1166     6816.00000
    10.1298     6785.00000
    10.1429     6844.00000
    10.1560     6865.00000
    10.1692     6655.00000
    10.1823     6820.00000
    10.1954     6780.00000
    10.2086     6678.00000
    10.2217     6621.00000
    10.2348     6759.00000
    10.2479     6744.00000
    10.2611     6737.00000
    10.2742     6628.00000
    10.2873     6716.00000
    10.3005     6808.00000
    10.3136     6667.00000
    10.3267     6660.00000
    10.3399     6830.00000
    10.3530     6724.00000
    10.3661     6668.00000
    10.3792     6714.00000
    10.3924     6615.00000
    10.4055     6676.00000
    10.4186     6522.00000
    10.4318     6704.00000
    10.4449     6605.00000
    10.4580     6611.00000
    10.4712     6549.00000
    10.4843     6715.00000
    10.4974     6585.00000
    10.5105     6606.00000
    10.5237     6386.00000
    10.5368     6443.00000
    10.5499     6708.00000
    10.5631     6863.00000
    10.5762     6468.00000
    10.5893     6490.00000
    10.6025     6516.00000
    10.6156     6503.00000
    10.6287     6611.00000
    10.6418     6460.00000
    10.6550     6476.00000
    10.6681     6766.00000
    10.6812     6665.00000
    10.6944     6448.00000
    10.7075     6613.00000
    10.7206     6766.00000
    10.7338     6698.00000
    10.7469     6759.00000
    10.7600     6663.00000
    10.7732     6878.00000
    10.7863     6835.00000
    10.7994     6692.00000
    10.8125     6731.00000
    10.8257     6829.00000
    10.8388     6781.00000
    10.8519     6719.00000
    10.8651     6807.00000
    10.8782     6943.00000
    10.8913     7120.00000
    10.9045     7149.00000
    10.9176     7238.00000
    10.9307     7359.00000
    10.9438     7469.00000
    10.9570     7693.00000
    10.9701     7958.00000
    10.9832     8530.00000
    10.9964     9606.00000
    11.0095    10510.00000
    11.0226    11503.00000
    11.0358    13264.00000
    11.0489    16657.00000
    11.0620    22064.00000
    11.0751    28179.00000
    11.0883    36353.00000
    11.1014    45848.00000
    11.1145    51122.00000
    11.1277    51521.00000
    11.1408    46893.00000
    11.1539    38363.00000
    11.1671    31269.00000
    11.1802    24750.00000
    11.1933    18999.00000
    11.2065    14464.00000
    11.2196    11568.00000
    11.2327     9379.00000
    11.2458     8319.00000
    11.2590     7618.00000
    11.2721     7216.00000
    11.2852     7133.00000
    11.2984     6929.00000
    11.3115     6868.00000
    11.3246     6656.00000
    11.3378     6744.00000
    11.3509     6629.00000
    11.3640     6547.00000
    11.3771     6679.00000
    11.3903     6509.00000
    11.4034     6353.00000
    11.4165     6433.00000
    11.4297     6449.00000
    11.4428     6170.00000
    11.4559     6376.00000
    11.4691     6244.00000
    11.4822     6356.00000
    11.4953     6399.00000
    11.5084     6549.00000
    11.5216     6413.00000
    11.5347     6390.00000
    11.5478     6271.00000
    11.5610     6266.00000
    11.5741     6277.00000
    11.5872     6332.00000
    11.6004     6319.00000
    11.6135     6327.00000
    11.6266     6264.00000
    11.6398     6246.00000
    11.6529     6185.00000
    11.6660     6244.00000
    11.6791     6241.00000
    11.6923     6305.00000
    11.7054     6271.00000
    11.7185     6289.00000
    11.7317     6183.00000
    11.7448     6160.00000
    11.7579     6077.00000
    11.7711     6103.00000
    11.7842     6193.00000
    11.7973     6217.00000
    11.8104     6151.00000
    11.8236     6232.00000
    11.8367     6102.00000
    11.8498     6152.00000
    11.8630     6199.00000
    11.8761     6112.00000
    11.8892     6148.00000
    11.9024     6101.00000
    11.9155     6002.00000
    11.9286     6046.00000
    11.9417     6101.00000
    11.9549     6049.00000
    11.9680     6024.00000
    11.9811     6088.00000
    11.9943     6097.00000
    12.0074     6116.00000
    12.0205     6092.00000
    12.0337     6082.00000
    12.0468     6030.00000
    12.0599     5936.00000
    12.0731     6033.00000
    12.0862     6043.00000
    12.0993     6000.00000
    12.1124     6058.00000
    12.1256     6000.00000
    12.1387     6072.00000
    12.1518     6121.00000
    12.1650     5981.00000
    12.1781     5926.00000
    12.1912     6025.00000
    12.2044     6005.00000
    12.2175     5920.00000
    12.2306     5895.00000
    12.2437     5894.00000
    12.2569     5926.00000
    12.2700     5900.00000
    12.2831     5823.00000
    12.2963     5873.00000
    12.3094     5863.00000
    12.3225     6059.00000
    12.3357     5889.00000
    12.3488     6026.00000
    12.3619     6038.00000
    12.3750     5916.00000
    12.3882     5932.00000
    12.4013     5799.00000
    12.4144     5885.00000
    12.4276     5829.00000
    12.4407     5839.00000
    12.4538     5924.00000
    12.4670     5886.00000
    12.4801     5851.00000
    12.4932     5797.00000
    12.5063     5895.00000
    12.5195     5879.00000
    12.5326     5778.00000
    12.5457     5936.00000
    12.5589     5747.00000
    12.5720     6012.00000
    12.5851     5811.00000
    12.5983     5879.00000
    12.6114     5781.00000
    12.6245     5791.00000
    12.6377     5756.00000
    12.6508     5788.00000
    12.6639     5754.00000
    12.6770     5850.00000
    12.6902     5720.00000
    12.7033     5651.00000
    12.7164     5820.00000
    12.7296     5760.00000
    12.7427     5717.00000
    12.7558     5768.00000
    12.7690     5699.00000
    12.7821     5670.00000
    12.7952     5711.00000
    12.8083     5778.00000
    12.8215     5753.00000
    12.8346     5788.00000
    12.8477     5852.00000
    12.8609     5605.00000
    12.8740     5671.00000
    12.8871     5727.00000
    12.9003     5746.00000
    12.9134     5802.00000
    12.9265     5688.00000
    12.9396     5545.00000
    12.9528     5638.00000
    12.9659     5694.00000
    12.9790     5758.00000
    12.9922     5684.00000
    13.0053     5632.00000
    13.0184     5721.00000
    13.0316     5671.00000
    13.0447     5641.00000
    13.0578     5629.00000
    13.0710     5718.00000
    13.0841     5618.00000
    13.0972     5625.00000
    13.1103     5538.00000
    13.1235     5611.00000
    13.1366     5628.00000
    13.1497     5725.00000
    13.1629     5436.00000
    13.1760     5618.00000
    13.1891     5530.00000
    13.2023     5673.00000
    13.2154     5522.00000
    13.2285     5516.00000
    13.2416     5553.00000
    13.2548     5669.00000
    13.2679     5574.00000
    13.2810     5482.00000
    13.2942     5528.00000
    13.3073     5743.00000
    13.3204     5522.00000
    13.3336     5597.00000
    13.3467     5524.00000
    13.3598     5711.00000
    13.3729     5671.00000
    13.3861     5553.00000
    13.3992     5594.00000
    13.4123     5565.00000
    13.4255     5556.00000
    13.4386     5671.00000
    13.4517     5636.00000
    13.4649     5614.00000
    13.4780     5524.00000
    13.4911     5519.00000
    13.5043     5565.00000
    13.5174     5533.00000
    13.5305     5500.00000
    13.5436     5450.00000
    13.5568     5639.00000
    13.5699     5577.00000
    13.5830     5491.00000
    13.5962     5421.00000
    13.6093     5447.00000
    13.6224     5443.00000
    13.6356     5454.00000
    13.6487     5360.00000
    13.6618     5399.00000
    13.6749     5568.00000
    13.6881     5404.00000
    13.7012     5405.00000
    13.7143     5321.00000
    13.7275     5467.00000
    13.7406     5308.00000
    13.7537     5552.00000
    13.7669     5473.00000
    13.7800     5324.00000
    13.7931     5472.00000
    13.8062     5438.00000
    13.8194     5514.00000
    13.8325     5329.00000
    13.8456     5251.00000
    13.8588     5406.00000
    13.8719     5396.00000
    13.8850     5564.00000
    13.8982     5410.00000
    13.9113     5440.00000
    13.9244     5396.00000
    13.9376     5385.00000
    13.9507     5277.00000
    13.9638     5379.00000
    13.9769     5372.00000
    13.9901     5439.00000
    14.0032     5383.00000
    14.0163     5359.00000
    14.0295     5319.00000
    14.0426     5394.00000
    14.0557     5350.00000
    14.0689     5327.00000
    14.0820     5252.00000
    14.0951     5353.00000
    14.1082     5248.00000
    14.1214     5321.00000
    14.1345     5399.00000
    14.1476     5329.00000
    14.1608     5209.00000
    14.1739     5360.00000
    14.1870     5253.00000
    14.2002     5166.00000
    14.2133     5282.00000
    14.2264     5167.00000
    14.2395     5236.00000
    14.2527     5226.00000
    14.2658     5257.00000
    14.2789     5281.00000
    14.2921     5274.00000
    14.3052     5234.00000
    14.3183     5384.00000
    14.3315     5246.00000
    14.3446     5350.00000
    14.3577     5175.00000
    14.3708     5192.00000
    14.3840     5219.00000
    14.3971     5082.00000
    14.4102     5301.00000
    14.4234     5075.00000
    14.4365     5211.00000
    14.4496     5322.00000
    14.4628     5224.00000
    14.4759     5210.00000
    14.4890     5300.00000
    14.5022     5249.00000
    14.5153     5195.00000
    14.5284     5290.00000
    14.5415     5253.00000
    14.5547     5068.00000
    14.5678     5266.00000
    14.5809     5336.00000
    14.5941     5172.00000
    14.6072     5156.00000
    14.6203     5042.00000
    14.6335     5134.00000
    14.6466     5127.00000
    14.6597     5117.00000
    14.6728     5072.00000
    14.6860     5149.00000
    14.6991     5154.00000
    14.7122     5250.00000
    14.7254     5108.00000
    14.7385     5370.00000
    14.7516     5144.00000
    14.7648     5175.00000
    14.7779     5227.00000
    14.7910     5125.00000
    14.8041     5139.00000
    14.8173     5092.00000
    14.8304     5295.00000
    14.8435     5249.00000
    14.8567     4938.00000
    14.8698     5147.00000
    14.8829     5079.00000
    14.8961     5140.00000
    14.9092     5235.00000
    14.9223     5066.00000
    14.9355     5027.00000
    14.9486     5136.00000
    14.9617     5058.00000
    14.9748     5103.00000
    14.9880     5190.00000
    15.0011     5137.00000
    15.0142     5013.00000
    15.0274     5158.00000
    15.0405     4952.00000
    15.0536     5091.00000
    15.0668     4978.00000
    15.0799     5092.00000
    15.0930     5000.00000
    15.1061     4986.00000
    15.1193     5110.00000
    15.1324     5007.00000
    15.1455     5079.00000
    15.1587     5068.00000
    15.1718     5017.00000
    15.1849     5061.00000
    15.1981     5058.00000
    15.2112     5085.00000
    15.2243     4987.00000
    15.2374     4925.00000
    15.2506     5115.00000
    15.2637     5039.00000
    15.2768     5047.00000
    15.2900     5003.00000
    15.3031     5087.00000
    15.3162     4948.00000
    15.3294     5162.00000
    15.3425     5117.00000
    15.3556     5034.00000
    15.3688     4970.00000
    15.3819     4968.00000
    15.3950     4878.00000
    15.4081     5124.00000
    15.4213     4889.00000
    15.4344     5036.00000
    15.4475     5121.00000
    15.4607     4998.00000
    15.4738     4995.00000
    15.4869     4987.00000
    15.5001     5012.00000
    15.5132     5130.00000
    15.5263     5020.00000
    15.5394     4892.00000
    15.5526     4927.00000
    15.5657     4979.00000
    15.5788     4888.00000
    15.5920     4979.00000
    15.6051     4897.00000
    15.6182     4989.00000
    15.6314     4880.00000
    15.6445     4866.00000
    15.6576     4935.00000
    15.6707     4898.00000
    15.6839     4944.00000
    15.6970     4952.00000
    15.7101     4964.00000
    15.7233     4960.00000
    15.7364     4919.00000
    15.7495     4972.00000
    15.7627     4981.00000
    15.7758     5050.00000
    15.7889     4931.00000
    15.8021     4889.00000
    15.8152     4895.00000
    15.8283     4962.00000
    15.8414     4896.00000
    15.8546     4865.00000
    15.8677     4987.00000
    15.8808     4831.00000
    15.8940     5039.00000
    15.9071     4826.00000
    15.9202     4893.00000
    15.9334     4953.00000
    15.9465     4923.00000
    15.9596     4985.00000
    15.9727     4862.00000
    15.9859     4944.00000
    15.9990     4912.00000
    16.0121     4832.00000
    16.0253     5031.00000
    16.0384     4866.00000
    16.0515     4928.00000
    16.0647     4940.00000
    16.0778     4926.00000
    16.0909     4893.00000
    16.1040     5002.00000
    16.1172     5069.00000
    16.1303     4983.00000
    16.1434     4842.00000
    16.1566     4968.00000
    16.1697     4907.00000
    16.1828     4793.00000
    16.1960     5006.00000
    16.2091     4995.00000
    16.2222     4876.00000
    16.2353     4970.00000
    16.2485     5034.00000
    16.2616     4949.00000
    16.2747     5146.00000
    16.2879     5006.00000
    16.3010     5085.00000
    16.3141     5112.00000
    16.3273     5000.00000
    16.3404     5030.00000
    16.3535     4946.00000
    16.3667     5069.00000
    16.3798     5162.00000
    16.3929     5071.00000
    16.4060     5040.00000
    16.4192     5196.00000
    16.4323     4997.00000
    16.4454     4976.00000
    16.4586     5073.00000
    16.4717     4994.00000
    16.4848     4949.00000
    16.4980     4931.00000
    16.5111     5020.00000
    16.5242     4996.00000
    16.5373     5003.00000
    16.5505     4955.00000
    16.5636     4989.00000
    16.5767     4980.00000
    16.5899     4811.00000
    16.6030     4871.00000
    16.6161     4846.00000
    16.6293     4657.00000
    16.6424     4849.00000
    16.6555     4878.00000
    16.6686     4723.00000
    16.6818     4630.00000
    16.6949     4722.00000
    16.7080     4682.00000
    16.7212     4620.00000
    16.7343     4861.00000
    16.7474     4644.00000
    16.7606     4776.00000
    16.7737     4729.00000
    16.7868     4819.00000
    16.8000     4716.00000
    16.8131     4796.00000
    16.8262     4786.00000
    16.8393     4815.00000
    16.8525     4647.00000
    16.8656     4784.00000
    16.8787     4705.00000
    16.8919     4655.00000
    16.9050     4757.00000
    16.9181     4704.00000
    16.9313     4731.00000
    16.9444     4632.00000
    16.9575     4683.00000
    16.9706     4691.00000
    16.9838     4804.00000
    16.9969     4690.00000
    17.0100     4738.00000
    17.0232     4684.00000
    17.0363     4657.00000
    17.0494     4722.00000
    17.0626     4783.00000
    17.0757     4712.00000
    17.0888     4732.00000
    17.1019     4757.00000
    17.1151     4600.00000
    17.1282     4718.00000
    17.1413     4661.00000
    17.1545     4698.00000
    17.1676     4809.00000
    17.1807     4662.00000
    17.1939     4698.00000
    17.2070     4839.00000
    17.2201     4816.00000
    17.2333     4783.00000
    17.2464     5069.00000
    17.2595     4868.00000
    17.2726     4913.00000
    17.2858     4930.00000
    17.2989     4828.00000
    17.3120     4846.00000
    17.3252     4908.00000
    17.3383     4804.00000
    17.3514     4697.00000
    17.3646     4820.00000
    17.3777     4607.00000
    17.3908     4638.00000
    17.4039     4721.00000
    17.4171     4515.00000
    17.4302     4720.00000
    17.4433     4650.00000
    17.4565     4548.00000
    17.4696     4485.00000
    17.4827     4480.00000
    17.4959     4623.00000
    17.5090     4615.00000
    17.5221     4572.00000
    17.5352     4595.00000
    17.5484     4640.00000
    17.5615     4499.00000
    17.5746     4495.00000
    17.5878     4604.00000
    17.6009     4609.00000
    17.6140     4493.00000
    17.6272     4583.00000
    17.6403     4540.00000
    17.6534     4733.00000
    17.6666     4560.00000
    17.6797     4604.00000
    17.6928     4525.00000
    17.7059     4624.00000
    17.7191     4668.00000
    17.7322     4747.00000
    17.7453     4824.00000
    17.7585     4893.00000
    17.7716     4754.00000
    17.7847     4839.00000
    17.7979     4814.00000
    17.8110     4765.00000
    17.8241     4628.00000
    17.8372     4514.00000
    17.8504     4622.00000
    17.8635     4523.00000
    17.8766     4509.00000
    17.8898     4452.00000
    17.9029     4474.00000
    17.9160     4556.00000
    17.9292     4501.00000
    17.9423     4459.00000
    17.9554     4387.00000
    17.9685     4463.00000
    17.9817     4488.00000
    17.9948     4420.00000
    18.0079     4423.00000
    18.0211     4394.00000
    18.0342     4453.00000
    18.0473     4462.00000
    18.0605     4403.00000
    18.0736     4414.00000
    18.0867     4443.00000
    18.0998     4512.00000
    18.1130     4477.00000
    18.1261     4416.00000
    18.1392     4508.00000
    18.1524     4422.00000
    18.1655     4417.00000
    18.1786     4402.00000
    18.1918     4453.00000
    18.2049     4484.00000
    18.2180     4480.00000
    18.2312     4453.00000
    18.2443     4353.00000
    18.2574     4417.00000
    18.2705     4391.00000
    18.2837     4430.00000
    18.2968     4423.00000
    18.3099     4521.00000
    18.3231     4324.00000
    18.3362     4398.00000
    18.3493     4357.00000
    18.3625     4421.00000
    18.3756     4335.00000
    18.3887     4375.00000
    18.4018     4280.00000
    18.4150     4358.00000
    18.4281     4260.00000
    18.4412     4332.00000
    18.4544     4419.00000
    18.4675     4277.00000
    18.4806     4399.00000
    18.4938     4423.00000
    18.5069     4290.00000
    18.5200     4396.00000
    18.5331     4365.00000
    18.5463     4542.00000
    18.5594     4520.00000
    18.5725     4454.00000
    18.5857     4515.00000
    18.5988     4457.00000
    18.6119     4495.00000
    18.6251     4382.00000
    18.6382     4536.00000
    18.6513     4562.00000
    18.6645     4480.00000
    18.6776     4505.00000
    18.6907     4345.00000
    18.7038     4467.00000
    18.7170     4340.00000
    18.7301     4464.00000
    18.7432     4362.00000
    18.7564     4231.00000
    18.7695     4363.00000
    18.7826     4255.00000
    18.7958     4224.00000
    18.8089     4227.00000
    18.8220     4183.00000
    18.8351     4437.00000
    18.8483     4469.00000
    18.8614     4391.00000
    18.8745     4234.00000
    18.8877     4239.00000
    18.9008     4201.00000
    18.9139     4343.00000
    18.9271     4285.00000
    18.9402     4304.00000
    18.9533     4176.00000
