! Initial file:   D:\ZAKARY_OUAIL\MA_THESE\Deuxième_année_de_thèse\DRX\Manips_DRX\1st_NaTaO2F2_XRK900\NaTaO2F2-Lent_180°C.xrdml
! Initial format:  58
! WAVE (A):      1.54060     1.54060     1.00000
! REM : data have been multiplied by     1.0000
! X_data : 2 Theta (deg.)                                                                                                                                                                                                                                                  
! Y_data : Intensity (arb. units)                                                                                                                                                                                                                                          
!     X         Y
!--------------------------------------------------------------------------------
    10.0116     6865.00000
    10.0247     6688.00000
    10.0379     6802.00000
    10.0510     6880.00000
    10.0641     6633.00000
    10.0772     6866.00000
    10.0904     6620.00000
    10.1035     6606.00000
    10.1166     6574.00000
    10.1298     6544.00000
    10.1429     6674.00000
    10.1560     6629.00000
    10.1692     6615.00000
    10.1823     6563.00000
    10.1954     6476.00000
    10.2086     6581.00000
    10.2217     6493.00000
    10.2348     6555.00000
    10.2479     6707.00000
    10.2611     6628.00000
    10.2742     6567.00000
    10.2873     6615.00000
    10.3005     6441.00000
    10.3136     6569.00000
    10.3267     6532.00000
    10.3399     6517.00000
    10.3530     6375.00000
    10.3661     6477.00000
    10.3792     6493.00000
    10.3924     6399.00000
    10.4055     6514.00000
    10.4186     6588.00000
    10.4318     6459.00000
    10.4449     6385.00000
    10.4580     6435.00000
    10.4712     6531.00000
    10.4843     6480.00000
    10.4974     6511.00000
    10.5105     6396.00000
    10.5237     6384.00000
    10.5368     6448.00000
    10.5499     6434.00000
    10.5631     6492.00000
    10.5762     6380.00000
    10.5893     6460.00000
    10.6025     6392.00000
    10.6156     6451.00000
    10.6287     6141.00000
    10.6418     6478.00000
    10.6550     6472.00000
    10.6681     6492.00000
    10.6812     6510.00000
    10.6944     6237.00000
    10.7075     6450.00000
    10.7206     6439.00000
    10.7338     6586.00000
    10.7469     6586.00000
    10.7600     6555.00000
    10.7732     6515.00000
    10.7863     6552.00000
    10.7994     6584.00000
    10.8125     6625.00000
    10.8257     6774.00000
    10.8388     6761.00000
    10.8519     6729.00000
    10.8651     6629.00000
    10.8782     6816.00000
    10.8913     6934.00000
    10.9045     6945.00000
    10.9176     7078.00000
    10.9307     7059.00000
    10.9438     7357.00000
    10.9570     7584.00000
    10.9701     7945.00000
    10.9832     8642.00000
    10.9964     9587.00000
    11.0095    10526.00000
    11.0226    11703.00000
    11.0358    14074.00000
    11.0489    17850.00000
    11.0620    22990.00000
    11.0751    29432.00000
    11.0883    38549.00000
    11.1014    46337.00000
    11.1145    50964.00000
    11.1277    51041.00000
    11.1408    44905.00000
    11.1539    36987.00000
    11.1671    29574.00000
    11.1802    22764.00000
    11.1933    17369.00000
    11.2065    13433.00000
    11.2196    10814.00000
    11.2327     8880.00000
    11.2458     8064.00000
    11.2590     7390.00000
    11.2721     7207.00000
    11.2852     6948.00000
    11.2984     6803.00000
    11.3115     6600.00000
    11.3246     6569.00000
    11.3378     6454.00000
    11.3509     6425.00000
    11.3640     6282.00000
    11.3771     6309.00000
    11.3903     6466.00000
    11.4034     6246.00000
    11.4165     6408.00000
    11.4297     6232.00000
    11.4428     6234.00000
    11.4559     6110.00000
    11.4691     6344.00000
    11.4822     6280.00000
    11.4953     6226.00000
    11.5084     6136.00000
    11.5216     6138.00000
    11.5347     6115.00000
    11.5478     6153.00000
    11.5610     6126.00000
    11.5741     6236.00000
    11.5872     6183.00000
    11.6004     6115.00000
    11.6135     6080.00000
    11.6266     5982.00000
    11.6398     6213.00000
    11.6529     5977.00000
    11.6660     6131.00000
    11.6791     6091.00000
    11.6923     6126.00000
    11.7054     5881.00000
    11.7185     6065.00000
    11.7317     5946.00000
    11.7448     6074.00000
    11.7579     5950.00000
    11.7711     5963.00000
    11.7842     6142.00000
    11.7973     6124.00000
    11.8104     6066.00000
    11.8236     5950.00000
    11.8367     5961.00000
    11.8498     5988.00000
    11.8630     5864.00000
    11.8761     5836.00000
    11.8892     5904.00000
    11.9024     5914.00000
    11.9155     6022.00000
    11.9286     6014.00000
    11.9417     5975.00000
    11.9549     6047.00000
    11.9680     5937.00000
    11.9811     5883.00000
    11.9943     5913.00000
    12.0074     5918.00000
    12.0205     5875.00000
    12.0337     5934.00000
    12.0468     5912.00000
    12.0599     5847.00000
    12.0731     5839.00000
    12.0862     5866.00000
    12.0993     5963.00000
    12.1124     5760.00000
    12.1256     5986.00000
    12.1387     5784.00000
    12.1518     5851.00000
    12.1650     5853.00000
    12.1781     5922.00000
    12.1912     5922.00000
    12.2044     5851.00000
    12.2175     5737.00000
    12.2306     5894.00000
    12.2437     5763.00000
    12.2569     5849.00000
    12.2700     5807.00000
    12.2831     5756.00000
    12.2963     5824.00000
    12.3094     5800.00000
    12.3225     5666.00000
    12.3357     5874.00000
    12.3488     5898.00000
    12.3619     5682.00000
    12.3750     5753.00000
    12.3882     5720.00000
    12.4013     5772.00000
    12.4144     5653.00000
    12.4276     5902.00000
    12.4407     5941.00000
    12.4538     5724.00000
    12.4670     5751.00000
    12.4801     5745.00000
    12.4932     5670.00000
    12.5063     5679.00000
    12.5195     5632.00000
    12.5326     5606.00000
    12.5457     5632.00000
    12.5589     5827.00000
    12.5720     5653.00000
    12.5851     5807.00000
    12.5983     5612.00000
    12.6114     5639.00000
    12.6245     5656.00000
    12.6377     5711.00000
    12.6508     5598.00000
    12.6639     5642.00000
    12.6770     5691.00000
    12.6902     5671.00000
    12.7033     5699.00000
    12.7164     5566.00000
    12.7296     5777.00000
    12.7427     5631.00000
    12.7558     5798.00000
    12.7690     5719.00000
    12.7821     5544.00000
    12.7952     5529.00000
    12.8083     5668.00000
    12.8215     5527.00000
    12.8346     5652.00000
    12.8477     5601.00000
    12.8609     5656.00000
    12.8740     5567.00000
    12.8871     5552.00000
    12.9003     5491.00000
    12.9134     5594.00000
    12.9265     5636.00000
    12.9396     5623.00000
    12.9528     5581.00000
    12.9659     5594.00000
    12.9790     5689.00000
    12.9922     5467.00000
    13.0053     5504.00000
    13.0184     5642.00000
    13.0316     5574.00000
    13.0447     5637.00000
    13.0578     5653.00000
    13.0710     5793.00000
    13.0841     5494.00000
    13.0972     5612.00000
    13.1103     5562.00000
    13.1235     5534.00000
    13.1366     5514.00000
    13.1497     5467.00000
    13.1629     5494.00000
    13.1760     5504.00000
    13.1891     5446.00000
    13.2023     5431.00000
    13.2154     5520.00000
    13.2285     5558.00000
    13.2416     5410.00000
    13.2548     5392.00000
    13.2679     5475.00000
    13.2810     5488.00000
    13.2942     5419.00000
    13.3073     5487.00000
    13.3204     5330.00000
    13.3336     5467.00000
    13.3467     5481.00000
    13.3598     5437.00000
    13.3729     5445.00000
    13.3861     5539.00000
    13.3992     5308.00000
    13.4123     5473.00000
    13.4255     5389.00000
    13.4386     5321.00000
    13.4517     5468.00000
    13.4649     5366.00000
    13.4780     5465.00000
    13.4911     5497.00000
    13.5043     5369.00000
    13.5174     5267.00000
    13.5305     5444.00000
    13.5436     5407.00000
    13.5568     5364.00000
    13.5699     5317.00000
    13.5830     5487.00000
    13.5962     5260.00000
    13.6093     5391.00000
    13.6224     5335.00000
    13.6356     5407.00000
    13.6487     5335.00000
    13.6618     5352.00000
    13.6749     5306.00000
    13.6881     5402.00000
    13.7012     5312.00000
    13.7143     5167.00000
    13.7275     5277.00000
    13.7406     5249.00000
    13.7537     5319.00000
    13.7669     5192.00000
    13.7800     5188.00000
    13.7931     5408.00000
    13.8062     5238.00000
    13.8194     5251.00000
    13.8325     5315.00000
    13.8456     5200.00000
    13.8588     5209.00000
    13.8719     5146.00000
    13.8850     5157.00000
    13.8982     5123.00000
    13.9113     5228.00000
    13.9244     5296.00000
    13.9376     5276.00000
    13.9507     5275.00000
    13.9638     5291.00000
    13.9769     5086.00000
    13.9901     5192.00000
    14.0032     5259.00000
    14.0163     5351.00000
    14.0295     5267.00000
    14.0426     5240.00000
    14.0557     5201.00000
    14.0689     5239.00000
    14.0820     5239.00000
    14.0951     5252.00000
    14.1082     5284.00000
    14.1214     5216.00000
    14.1345     5206.00000
    14.1476     5300.00000
    14.1608     5242.00000
    14.1739     5187.00000
    14.1870     5213.00000
    14.2002     5256.00000
    14.2133     5220.00000
    14.2264     5230.00000
    14.2395     5173.00000
    14.2527     5190.00000
    14.2658     5234.00000
    14.2789     5120.00000
    14.2921     5233.00000
    14.3052     5071.00000
    14.3183     5190.00000
    14.3315     5115.00000
    14.3446     5235.00000
    14.3577     5197.00000
    14.3708     5194.00000
    14.3840     5091.00000
    14.3971     5192.00000
    14.4102     5195.00000
    14.4234     5128.00000
    14.4365     5138.00000
    14.4496     5054.00000
    14.4628     5072.00000
    14.4759     5185.00000
    14.4890     5108.00000
    14.5022     5079.00000
    14.5153     5089.00000
    14.5284     5259.00000
    14.5415     5089.00000
    14.5547     5070.00000
    14.5678     5049.00000
    14.5809     5037.00000
    14.5941     4836.00000
    14.6072     5010.00000
    14.6203     5161.00000
    14.6335     4981.00000
    14.6466     5011.00000
    14.6597     5127.00000
    14.6728     5226.00000
    14.6860     5050.00000
    14.6991     5091.00000
    14.7122     5062.00000
    14.7254     5128.00000
    14.7385     5002.00000
    14.7516     4910.00000
    14.7648     5063.00000
    14.7779     5075.00000
    14.7910     5024.00000
    14.8041     5018.00000
    14.8173     5130.00000
    14.8304     5027.00000
    14.8435     5047.00000
    14.8567     4953.00000
    14.8698     4931.00000
    14.8829     5101.00000
    14.8961     5133.00000
    14.9092     5028.00000
    14.9223     5022.00000
    14.9355     5085.00000
    14.9486     4989.00000
    14.9617     4969.00000
    14.9748     4978.00000
    14.9880     4977.00000
    15.0011     5011.00000
    15.0142     5083.00000
    15.0274     4855.00000
    15.0405     5118.00000
    15.0536     4892.00000
    15.0668     4915.00000
    15.0799     4876.00000
    15.0930     4953.00000
    15.1061     4896.00000
    15.1193     4825.00000
    15.1324     4912.00000
    15.1455     5017.00000
    15.1587     4933.00000
    15.1718     4915.00000
    15.1849     4978.00000
    15.1981     4845.00000
    15.2112     4925.00000
    15.2243     4900.00000
    15.2374     4959.00000
    15.2506     5039.00000
    15.2637     4896.00000
    15.2768     4907.00000
    15.2900     4703.00000
    15.3031     5000.00000
    15.3162     5027.00000
    15.3294     5022.00000
    15.3425     4991.00000
    15.3556     4903.00000
    15.3688     4977.00000
    15.3819     5066.00000
    15.3950     5002.00000
    15.4081     4883.00000
    15.4213     4861.00000
    15.4344     4970.00000
    15.4475     4793.00000
    15.4607     4883.00000
    15.4738     4894.00000
    15.4869     4946.00000
    15.5001     4919.00000
    15.5132     4922.00000
    15.5263     4838.00000
    15.5394     4874.00000
    15.5526     4814.00000
    15.5657     4970.00000
    15.5788     4946.00000
    15.5920     4945.00000
    15.6051     4994.00000
    15.6182     4784.00000
    15.6314     4966.00000
    15.6445     4865.00000
    15.6576     4930.00000
    15.6707     4832.00000
    15.6839     4891.00000
    15.6970     4874.00000
    15.7101     4731.00000
    15.7233     4853.00000
    15.7364     4761.00000
    15.7495     4830.00000
    15.7627     4902.00000
    15.7758     4812.00000
    15.7889     4780.00000
    15.8021     4885.00000
    15.8152     4814.00000
    15.8283     4878.00000
    15.8414     4751.00000
    15.8546     4841.00000
    15.8677     4776.00000
    15.8808     4854.00000
    15.8940     4770.00000
    15.9071     4800.00000
    15.9202     4880.00000
    15.9334     4878.00000
    15.9465     4858.00000
    15.9596     4854.00000
    15.9727     4894.00000
    15.9859     4694.00000
    15.9990     4767.00000
    16.0121     4897.00000
    16.0253     4762.00000
    16.0384     4782.00000
    16.0515     4844.00000
    16.0647     4740.00000
    16.0778     4799.00000
    16.0909     4906.00000
    16.1040     4787.00000
    16.1172     4884.00000
    16.1303     4704.00000
    16.1434     4844.00000
    16.1566     4930.00000
    16.1697     4958.00000
    16.1828     4926.00000
    16.1960     4898.00000
    16.2091     4838.00000
    16.2222     5015.00000
    16.2353     4762.00000
    16.2485     4971.00000
    16.2616     4778.00000
    16.2747     4858.00000
    16.2879     4914.00000
    16.3010     4936.00000
    16.3141     4926.00000
    16.3273     4832.00000
    16.3404     5064.00000
    16.3535     4797.00000
    16.3667     5009.00000
    16.3798     4921.00000
    16.3929     5015.00000
    16.4060     4956.00000
    16.4192     4843.00000
    16.4323     4913.00000
    16.4454     4851.00000
    16.4586     4776.00000
    16.4717     4964.00000
    16.4848     4879.00000
    16.4980     4901.00000
    16.5111     4879.00000
    16.5242     4965.00000
    16.5373     4868.00000
    16.5505     4864.00000
    16.5636     4837.00000
    16.5767     4708.00000
    16.5899     4777.00000
    16.6030     4743.00000
    16.6161     4774.00000
    16.6293     4654.00000
    16.6424     4735.00000
    16.6555     4681.00000
    16.6686     4657.00000
    16.6818     4735.00000
    16.6949     4799.00000
    16.7080     4681.00000
    16.7212     4620.00000
    16.7343     4691.00000
    16.7474     4653.00000
    16.7606     4556.00000
    16.7737     4567.00000
    16.7868     4660.00000
    16.8000     4686.00000
    16.8131     4826.00000
    16.8262     4560.00000
    16.8393     4723.00000
    16.8525     4746.00000
    16.8656     4740.00000
    16.8787     4555.00000
    16.8919     4508.00000
    16.9050     4570.00000
    16.9181     4742.00000
    16.9313     4610.00000
    16.9444     4592.00000
    16.9575     4691.00000
    16.9706     4641.00000
    16.9838     4664.00000
    16.9969     4620.00000
    17.0100     4690.00000
    17.0232     4730.00000
    17.0363     4719.00000
    17.0494     4589.00000
    17.0626     4632.00000
    17.0757     4779.00000
    17.0888     4626.00000
    17.1019     4479.00000
    17.1151     4582.00000
    17.1282     4562.00000
    17.1413     4758.00000
    17.1545     4806.00000
    17.1676     4618.00000
    17.1807     4566.00000
    17.1939     4752.00000
    17.2070     4647.00000
    17.2201     4718.00000
    17.2333     4736.00000
    17.2464     4730.00000
    17.2595     4899.00000
    17.2726     4850.00000
    17.2858     4697.00000
    17.2989     4814.00000
    17.3120     4684.00000
    17.3252     4677.00000
    17.3383     4606.00000
    17.3514     4613.00000
    17.3646     4592.00000
    17.3777     4525.00000
    17.3908     4448.00000
    17.4039     4659.00000
    17.4171     4581.00000
    17.4302     4423.00000
    17.4433     4438.00000
    17.4565     4567.00000
    17.4696     4576.00000
    17.4827     4649.00000
    17.4959     4502.00000
    17.5090     4378.00000
    17.5221     4619.00000
    17.5352     4553.00000
    17.5484     4555.00000
    17.5615     4534.00000
    17.5746     4394.00000
    17.5878     4522.00000
    17.6009     4678.00000
    17.6140     4443.00000
    17.6272     4626.00000
    17.6403     4584.00000
    17.6534     4477.00000
    17.6666     4603.00000
    17.6797     4598.00000
    17.6928     4542.00000
    17.7059     4492.00000
    17.7191     4660.00000
    17.7322     4686.00000
    17.7453     4743.00000
    17.7585     4835.00000
    17.7716     4769.00000
    17.7847     4635.00000
    17.7979     4510.00000
    17.8110     4685.00000
    17.8241     4616.00000
    17.8372     4484.00000
    17.8504     4496.00000
    17.8635     4466.00000
    17.8766     4438.00000
    17.8898     4271.00000
    17.9029     4550.00000
    17.9160     4344.00000
    17.9292     4573.00000
    17.9423     4467.00000
    17.9554     4515.00000
    17.9685     4287.00000
    17.9817     4323.00000
    17.9948     4429.00000
    18.0079     4485.00000
    18.0211     4442.00000
    18.0342     4405.00000
    18.0473     4358.00000
    18.0605     4489.00000
    18.0736     4437.00000
    18.0867     4501.00000
    18.0998     4463.00000
    18.1130     4384.00000
    18.1261     4310.00000
    18.1392     4411.00000
    18.1524     4306.00000
    18.1655     4536.00000
    18.1786     4324.00000
    18.1918     4367.00000
    18.2049     4483.00000
    18.2180     4445.00000
    18.2312     4336.00000
    18.2443     4262.00000
    18.2574     4306.00000
    18.2705     4424.00000
    18.2837     4451.00000
    18.2968     4372.00000
    18.3099     4369.00000
    18.3231     4268.00000
    18.3362     4278.00000
    18.3493     4264.00000
    18.3625     4296.00000
    18.3756     4270.00000
    18.3887     4253.00000
    18.4018     4353.00000
    18.4150     4151.00000
    18.4281     4288.00000
    18.4412     4399.00000
    18.4544     4287.00000
    18.4675     4337.00000
    18.4806     4370.00000
    18.4938     4365.00000
    18.5069     4263.00000
    18.5200     4504.00000
    18.5331     4352.00000
    18.5463     4269.00000
    18.5594     4317.00000
    18.5725     4398.00000
    18.5857     4331.00000
    18.5988     4357.00000
    18.6119     4388.00000
    18.6251     4579.00000
    18.6382     4441.00000
    18.6513     4503.00000
    18.6645     4440.00000
    18.6776     4348.00000
    18.6907     4367.00000
    18.7038     4284.00000
    18.7170     4316.00000
    18.7301     4269.00000
    18.7432     4300.00000
    18.7564     4207.00000
    18.7695     4163.00000
    18.7826     4245.00000
    18.7958     4356.00000
    18.8089     4267.00000
    18.8220     4295.00000
    18.8351     4305.00000
    18.8483     4248.00000
    18.8614     4280.00000
    18.8745     4176.00000
    18.8877     4285.00000
    18.9008     4274.00000
    18.9139     4261.00000
    18.9271     4149.00000
    18.9402     4186.00000
    18.9533     4261.00000
