! Initial file:   D:\ZAKARY_OUAIL\MA_THESE\Deuxième_année_de_thèse\DRX\Manips_DRX\1st_NaTaO2F2_XRK900\NaTaO2F2-Lent_220°C.xrdml
! Initial format:  58
! WAVE (A):      1.54060     1.54060     1.00000
! REM : data have been multiplied by     1.0000
! X_data : 2 Theta (deg.)                                                                                                                                                                                                                                                  
! Y_data : Intensity (arb. units)                                                                                                                                                                                                                                          
!     X         Y
!--------------------------------------------------------------------------------
    10.0116     6604.00000
    10.0247     6518.00000
    10.0379     6687.00000
    10.0510     6544.00000
    10.0641     6523.00000
    10.0772     6442.00000
    10.0904     6636.00000
    10.1035     6450.00000
    10.1166     6399.00000
    10.1298     6606.00000
    10.1429     6493.00000
    10.1560     6475.00000
    10.1692     6597.00000
    10.1823     6366.00000
    10.1954     6297.00000
    10.2086     6478.00000
    10.2217     6392.00000
    10.2348     6582.00000
    10.2479     6383.00000
    10.2611     6486.00000
    10.2742     6411.00000
    10.2873     6380.00000
    10.3005     6374.00000
    10.3136     6257.00000
    10.3267     6357.00000
    10.3399     6213.00000
    10.3530     6372.00000
    10.3661     6306.00000
    10.3792     6240.00000
    10.3924     6179.00000
    10.4055     6335.00000
    10.4186     6421.00000
    10.4318     6278.00000
    10.4449     6380.00000
    10.4580     6372.00000
    10.4712     6199.00000
    10.4843     6239.00000
    10.4974     6380.00000
    10.5105     6162.00000
    10.5237     6362.00000
    10.5368     6352.00000
    10.5499     6239.00000
    10.5631     6244.00000
    10.5762     6193.00000
    10.5893     6299.00000
    10.6025     6377.00000
    10.6156     6357.00000
    10.6287     6184.00000
    10.6418     6339.00000
    10.6550     6350.00000
    10.6681     6298.00000
    10.6812     6351.00000
    10.6944     6204.00000
    10.7075     6241.00000
    10.7206     6391.00000
    10.7338     6378.00000
    10.7469     6530.00000
    10.7600     6444.00000
    10.7732     6490.00000
    10.7863     6542.00000
    10.7994     6561.00000
    10.8125     6351.00000
    10.8257     6541.00000
    10.8388     6600.00000
    10.8519     6578.00000
    10.8651     6520.00000
    10.8782     6514.00000
    10.8913     6744.00000
    10.9045     6889.00000
    10.9176     6928.00000
    10.9307     6972.00000
    10.9438     7278.00000
    10.9570     7544.00000
    10.9701     7917.00000
    10.9832     8520.00000
    10.9964     9334.00000
    11.0095    10514.00000
    11.0226    12192.00000
    11.0358    14742.00000
    11.0489    19035.00000
    11.0620    24271.00000
    11.0751    31318.00000
    11.0883    42240.00000
    11.1014    48953.00000
    11.1145    51701.00000
    11.1277    49711.00000
    11.1408    42139.00000
    11.1539    34923.00000
    11.1671    28138.00000
    11.1802    21835.00000
    11.1933    16407.00000
    11.2065    12695.00000
    11.2196    10266.00000
    11.2327     8492.00000
    11.2458     7548.00000
    11.2590     7322.00000
    11.2721     6800.00000
    11.2852     6733.00000
    11.2984     6519.00000
    11.3115     6558.00000
    11.3246     6471.00000
    11.3378     6397.00000
    11.3509     6197.00000
    11.3640     6145.00000
    11.3771     6242.00000
    11.3903     6170.00000
    11.4034     6126.00000
    11.4165     6048.00000
    11.4297     6057.00000
    11.4428     6036.00000
    11.4559     6118.00000
    11.4691     6127.00000
    11.4822     6010.00000
    11.4953     6060.00000
    11.5084     6309.00000
    11.5216     5936.00000
    11.5347     6158.00000
    11.5478     5938.00000
    11.5610     6003.00000
    11.5741     5933.00000
    11.5872     5983.00000
    11.6004     6026.00000
    11.6135     6010.00000
    11.6266     5992.00000
    11.6398     5890.00000
    11.6529     5850.00000
    11.6660     5924.00000
    11.6791     5969.00000
    11.6923     6017.00000
    11.7054     5927.00000
    11.7185     5832.00000
    11.7317     6049.00000
    11.7448     5796.00000
    11.7579     5842.00000
    11.7711     5697.00000
    11.7842     5937.00000
    11.7973     5978.00000
    11.8104     5968.00000
    11.8236     5838.00000
    11.8367     5963.00000
    11.8498     5838.00000
    11.8630     5738.00000
    11.8761     5832.00000
    11.8892     5768.00000
    11.9024     5741.00000
    11.9155     5804.00000
    11.9286     5827.00000
    11.9417     5876.00000
    11.9549     5847.00000
    11.9680     5625.00000
    11.9811     5748.00000
    11.9943     5748.00000
    12.0074     5765.00000
    12.0205     5714.00000
    12.0337     5751.00000
    12.0468     5950.00000
    12.0599     5894.00000
    12.0731     5733.00000
    12.0862     5814.00000
    12.0993     5776.00000
    12.1124     5816.00000
    12.1256     5713.00000
    12.1387     5618.00000
    12.1518     5762.00000
    12.1650     5725.00000
    12.1781     5776.00000
    12.1912     5736.00000
    12.2044     5648.00000
    12.2175     5672.00000
    12.2306     5680.00000
    12.2437     5762.00000
    12.2569     5553.00000
    12.2700     5765.00000
    12.2831     5653.00000
    12.2963     5664.00000
    12.3094     5593.00000
    12.3225     5776.00000
    12.3357     5639.00000
    12.3488     5596.00000
    12.3619     5680.00000
    12.3750     5564.00000
    12.3882     5778.00000
    12.4013     5754.00000
    12.4144     5736.00000
    12.4276     5566.00000
    12.4407     5567.00000
    12.4538     5587.00000
    12.4670     5509.00000
    12.4801     5552.00000
    12.4932     5496.00000
    12.5063     5658.00000
    12.5195     5610.00000
    12.5326     5692.00000
    12.5457     5635.00000
    12.5589     5531.00000
    12.5720     5624.00000
    12.5851     5649.00000
    12.5983     5425.00000
    12.6114     5538.00000
    12.6245     5724.00000
    12.6377     5531.00000
    12.6508     5583.00000
    12.6639     5525.00000
    12.6770     5647.00000
    12.6902     5584.00000
    12.7033     5684.00000
    12.7164     5476.00000
    12.7296     5537.00000
    12.7427     5551.00000
    12.7558     5663.00000
    12.7690     5488.00000
    12.7821     5431.00000
    12.7952     5516.00000
    12.8083     5424.00000
    12.8215     5542.00000
    12.8346     5577.00000
    12.8477     5423.00000
    12.8609     5435.00000
    12.8740     5601.00000
    12.8871     5473.00000
    12.9003     5367.00000
    12.9134     5548.00000
    12.9265     5533.00000
    12.9396     5496.00000
    12.9528     5364.00000
    12.9659     5362.00000
    12.9790     5520.00000
    12.9922     5530.00000
    13.0053     5392.00000
    13.0184     5276.00000
    13.0316     5477.00000
    13.0447     5448.00000
    13.0578     5473.00000
    13.0710     5493.00000
    13.0841     5413.00000
    13.0972     5476.00000
    13.1103     5405.00000
    13.1235     5418.00000
    13.1366     5467.00000
    13.1497     5284.00000
    13.1629     5288.00000
    13.1760     5474.00000
    13.1891     5262.00000
    13.2023     5434.00000
    13.2154     5378.00000
    13.2285     5344.00000
    13.2416     5451.00000
    13.2548     5410.00000
    13.2679     5428.00000
    13.2810     5374.00000
    13.2942     5513.00000
    13.3073     5411.00000
    13.3204     5242.00000
    13.3336     5471.00000
    13.3467     5459.00000
    13.3598     5399.00000
    13.3729     5355.00000
    13.3861     5272.00000
    13.3992     5321.00000
    13.4123     5344.00000
    13.4255     5251.00000
    13.4386     5190.00000
    13.4517     5371.00000
    13.4649     5356.00000
    13.4780     5372.00000
    13.4911     5389.00000
    13.5043     5249.00000
    13.5174     5181.00000
    13.5305     5335.00000
    13.5436     5332.00000
    13.5568     5347.00000
    13.5699     5208.00000
    13.5830     5257.00000
    13.5962     5099.00000
    13.6093     5284.00000
    13.6224     5256.00000
    13.6356     5169.00000
    13.6487     5213.00000
    13.6618     5337.00000
    13.6749     5191.00000
    13.6881     5274.00000
    13.7012     5400.00000
    13.7143     5184.00000
    13.7275     5302.00000
    13.7406     5209.00000
    13.7537     5339.00000
    13.7669     5285.00000
    13.7800     5248.00000
    13.7931     5193.00000
    13.8062     5270.00000
    13.8194     5346.00000
    13.8325     5223.00000
    13.8456     5310.00000
    13.8588     5205.00000
    13.8719     5269.00000
    13.8850     5259.00000
    13.8982     5089.00000
    13.9113     5125.00000
    13.9244     5219.00000
    13.9376     5094.00000
    13.9507     5195.00000
    13.9638     5213.00000
    13.9769     5198.00000
    13.9901     5100.00000
    14.0032     5130.00000
    14.0163     5185.00000
    14.0295     5132.00000
    14.0426     5097.00000
    14.0557     5099.00000
    14.0689     5118.00000
    14.0820     5141.00000
    14.0951     5139.00000
    14.1082     5070.00000
    14.1214     4939.00000
    14.1345     5102.00000
    14.1476     5112.00000
    14.1608     5110.00000
    14.1739     5126.00000
    14.1870     5155.00000
    14.2002     5153.00000
    14.2133     5078.00000
    14.2264     4965.00000
    14.2395     5098.00000
    14.2527     5129.00000
    14.2658     4974.00000
    14.2789     4992.00000
    14.2921     5052.00000
    14.3052     5157.00000
    14.3183     5008.00000
    14.3315     4982.00000
    14.3446     5081.00000
    14.3577     4997.00000
    14.3708     5101.00000
    14.3840     5099.00000
    14.3971     4981.00000
    14.4102     5034.00000
    14.4234     5076.00000
    14.4365     4944.00000
    14.4496     4931.00000
    14.4628     4963.00000
    14.4759     5104.00000
    14.4890     5137.00000
    14.5022     5020.00000
    14.5153     5102.00000
    14.5284     4896.00000
    14.5415     4910.00000
    14.5547     5104.00000
    14.5678     5140.00000
    14.5809     5180.00000
    14.5941     4954.00000
    14.6072     4981.00000
    14.6203     5010.00000
    14.6335     5060.00000
    14.6466     4910.00000
    14.6597     4989.00000
    14.6728     5020.00000
    14.6860     5034.00000
    14.6991     5021.00000
    14.7122     5033.00000
    14.7254     5036.00000
    14.7385     5009.00000
    14.7516     4789.00000
    14.7648     4899.00000
    14.7779     5018.00000
    14.7910     5168.00000
    14.8041     5041.00000
    14.8173     4939.00000
    14.8304     4978.00000
    14.8435     4814.00000
    14.8567     4909.00000
    14.8698     4927.00000
    14.8829     4858.00000
    14.8961     4970.00000
    14.9092     4920.00000
    14.9223     5046.00000
    14.9355     4810.00000
    14.9486     4933.00000
    14.9617     4950.00000
    14.9748     4878.00000
    14.9880     4881.00000
    15.0011     4962.00000
    15.0142     4817.00000
    15.0274     4929.00000
    15.0405     4919.00000
    15.0536     4836.00000
    15.0668     4803.00000
    15.0799     5029.00000
    15.0930     4951.00000
    15.1061     4883.00000
    15.1193     4804.00000
    15.1324     4935.00000
    15.1455     4809.00000
    15.1587     4976.00000
    15.1718     4811.00000
    15.1849     4921.00000
    15.1981     4788.00000
    15.2112     4875.00000
    15.2243     4870.00000
    15.2374     4721.00000
    15.2506     4836.00000
    15.2637     4848.00000
    15.2768     4876.00000
    15.2900     4854.00000
    15.3031     4786.00000
    15.3162     4800.00000
    15.3294     4796.00000
    15.3425     4799.00000
    15.3556     4866.00000
    15.3688     4771.00000
    15.3819     4845.00000
    15.3950     4817.00000
    15.4081     4820.00000
    15.4213     4726.00000
    15.4344     4705.00000
    15.4475     4828.00000
    15.4607     4887.00000
    15.4738     4746.00000
    15.4869     4803.00000
    15.5001     4774.00000
    15.5132     4807.00000
    15.5263     4711.00000
    15.5394     4819.00000
    15.5526     4886.00000
    15.5657     4765.00000
    15.5788     4761.00000
    15.5920     4841.00000
    15.6051     4867.00000
    15.6182     4820.00000
    15.6314     4741.00000
    15.6445     4819.00000
    15.6576     4743.00000
    15.6707     4747.00000
    15.6839     4857.00000
    15.6970     4778.00000
    15.7101     4766.00000
    15.7233     4782.00000
    15.7364     4619.00000
    15.7495     4759.00000
    15.7627     4732.00000
    15.7758     4785.00000
    15.7889     4802.00000
    15.8021     4702.00000
    15.8152     4691.00000
    15.8283     4923.00000
    15.8414     4934.00000
    15.8546     4784.00000
    15.8677     4644.00000
    15.8808     4668.00000
    15.8940     4625.00000
    15.9071     4851.00000
    15.9202     4819.00000
    15.9334     4815.00000
    15.9465     4850.00000
    15.9596     4713.00000
    15.9727     4706.00000
    15.9859     4747.00000
    15.9990     4780.00000
    16.0121     4646.00000
    16.0253     4780.00000
    16.0384     4824.00000
    16.0515     4723.00000
    16.0647     4751.00000
    16.0778     4828.00000
    16.0909     4834.00000
    16.1040     4798.00000
    16.1172     4720.00000
    16.1303     4877.00000
    16.1434     4820.00000
    16.1566     4796.00000
    16.1697     4806.00000
    16.1828     4814.00000
    16.1960     4842.00000
    16.2091     4706.00000
    16.2222     4687.00000
    16.2353     4846.00000
    16.2485     4790.00000
    16.2616     4909.00000
    16.2747     4959.00000
    16.2879     4734.00000
    16.3010     4879.00000
    16.3141     4777.00000
    16.3273     4744.00000
    16.3404     4829.00000
    16.3535     4836.00000
    16.3667     4772.00000
    16.3798     4882.00000
    16.3929     4945.00000
    16.4060     4905.00000
    16.4192     4932.00000
    16.4323     4861.00000
    16.4454     4791.00000
    16.4586     4902.00000
    16.4717     4822.00000
    16.4848     4853.00000
    16.4980     4901.00000
    16.5111     4816.00000
    16.5242     4697.00000
    16.5373     4651.00000
    16.5505     4778.00000
    16.5636     4863.00000
    16.5767     4755.00000
    16.5899     4639.00000
    16.6030     4622.00000
    16.6161     4634.00000
    16.6293     4717.00000
    16.6424     4687.00000
    16.6555     4606.00000
    16.6686     4643.00000
    16.6818     4658.00000
    16.6949     4752.00000
    16.7080     4604.00000
    16.7212     4606.00000
    16.7343     4578.00000
    16.7474     4693.00000
    16.7606     4468.00000
    16.7737     4671.00000
    16.7868     4626.00000
    16.8000     4590.00000
    16.8131     4597.00000
    16.8262     4490.00000
    16.8393     4493.00000
    16.8525     4551.00000
    16.8656     4594.00000
    16.8787     4527.00000
    16.8919     4471.00000
    16.9050     4540.00000
    16.9181     4613.00000
    16.9313     4553.00000
    16.9444     4594.00000
    16.9575     4481.00000
    16.9706     4523.00000
    16.9838     4455.00000
    16.9969     4541.00000
    17.0100     4633.00000
    17.0232     4567.00000
    17.0363     4519.00000
    17.0494     4519.00000
    17.0626     4504.00000
    17.0757     4559.00000
    17.0888     4559.00000
    17.1019     4558.00000
    17.1151     4408.00000
    17.1282     4513.00000
    17.1413     4617.00000
    17.1545     4528.00000
    17.1676     4605.00000
    17.1807     4732.00000
    17.1939     4845.00000
    17.2070     4624.00000
    17.2201     4701.00000
    17.2333     4677.00000
    17.2464     4800.00000
    17.2595     4734.00000
    17.2726     4644.00000
    17.2858     4770.00000
    17.2989     4676.00000
    17.3120     4582.00000
    17.3252     4588.00000
    17.3383     4671.00000
    17.3514     4505.00000
    17.3646     4559.00000
    17.3777     4479.00000
    17.3908     4340.00000
    17.4039     4570.00000
    17.4171     4405.00000
    17.4302     4489.00000
    17.4433     4519.00000
    17.4565     4422.00000
    17.4696     4384.00000
    17.4827     4428.00000
    17.4959     4406.00000
    17.5090     4365.00000
    17.5221     4314.00000
    17.5352     4590.00000
    17.5484     4427.00000
    17.5615     4472.00000
    17.5746     4482.00000
    17.5878     4389.00000
    17.6009     4506.00000
    17.6140     4432.00000
    17.6272     4415.00000
    17.6403     4430.00000
    17.6534     4614.00000
    17.6666     4456.00000
    17.6797     4491.00000
    17.6928     4415.00000
    17.7059     4635.00000
    17.7191     4610.00000
    17.7322     4657.00000
    17.7453     4689.00000
    17.7585     4731.00000
    17.7716     4650.00000
    17.7847     4513.00000
    17.7979     4529.00000
    17.8110     4469.00000
    17.8241     4466.00000
    17.8372     4415.00000
    17.8504     4430.00000
    17.8635     4375.00000
    17.8766     4377.00000
    17.8898     4310.00000
    17.9029     4390.00000
    17.9160     4280.00000
    17.9292     4439.00000
    17.9423     4475.00000
    17.9554     4373.00000
    17.9685     4291.00000
    17.9817     4291.00000
    17.9948     4361.00000
    18.0079     4412.00000
    18.0211     4336.00000
    18.0342     4232.00000
    18.0473     4341.00000
    18.0605     4352.00000
    18.0736     4368.00000
    18.0867     4220.00000
    18.0998     4292.00000
    18.1130     4255.00000
    18.1261     4251.00000
    18.1392     4223.00000
    18.1524     4338.00000
    18.1655     4269.00000
    18.1786     4243.00000
    18.1918     4173.00000
    18.2049     4265.00000
    18.2180     4239.00000
    18.2312     4352.00000
    18.2443     4246.00000
    18.2574     4179.00000
    18.2705     4306.00000
    18.2837     4218.00000
    18.2968     4294.00000
    18.3099     4282.00000
    18.3231     4114.00000
    18.3362     4331.00000
    18.3493     4310.00000
    18.3625     4280.00000
    18.3756     4205.00000
    18.3887     4323.00000
    18.4018     4237.00000
    18.4150     4128.00000
    18.4281     4403.00000
    18.4412     4174.00000
    18.4544     4243.00000
    18.4675     4234.00000
    18.4806     4186.00000
    18.4938     4065.00000
    18.5069     4272.00000
    18.5200     4278.00000
    18.5331     4313.00000
    18.5463     4266.00000
    18.5594     4262.00000
    18.5725     4319.00000
    18.5857     4365.00000
    18.5988     4287.00000
    18.6119     4359.00000
    18.6251     4338.00000
    18.6382     4407.00000
    18.6513     4356.00000
    18.6645     4261.00000
    18.6776     4483.00000
    18.6907     4414.00000
    18.7038     4260.00000
    18.7170     4382.00000
    18.7301     4260.00000
    18.7432     4228.00000
    18.7564     4286.00000
    18.7695     4325.00000
    18.7826     4249.00000
    18.7958     4334.00000
    18.8089     4259.00000
    18.8220     4241.00000
    18.8351     4206.00000
    18.8483     4162.00000
    18.8614     4113.00000
    18.8745     4156.00000
    18.8877     4236.00000
    18.9008     4209.00000
    18.9139     4126.00000
    18.9271     4210.00000
    18.9402     4290.00000
    18.9533     4142.00000
