! Initial file:   D:\ZAKARY_OUAIL\MA_THESE\Deuxième_année_de_thèse\DRX\Manips_DRX\1st_NaTaO2F2_XRK900\NaTaO2F2-Lent_230°C.xrdml
! Initial format:  58
! WAVE (A):      1.54060     1.54060     1.00000
! REM : data have been multiplied by     1.0000
! X_data : 2 Theta (deg.)                                                                                                                                                                                                                                                  
! Y_data : Intensity (arb. units)                                                                                                                                                                                                                                          
!     X         Y
!--------------------------------------------------------------------------------
    10.0116     6462.00000
    10.0247     6605.00000
    10.0379     6564.00000
    10.0510     6462.00000
    10.0641     6549.00000
    10.0772     6376.00000
    10.0904     6501.00000
    10.1035     6420.00000
    10.1166     6422.00000
    10.1298     6374.00000
    10.1429     6373.00000
    10.1560     6347.00000
    10.1692     6415.00000
    10.1823     6329.00000
    10.1954     6489.00000
    10.2086     6299.00000
    10.2217     6315.00000
    10.2348     6428.00000
    10.2479     6435.00000
    10.2611     6382.00000
    10.2742     6484.00000
    10.2873     6244.00000
    10.3005     6222.00000
    10.3136     6331.00000
    10.3267     6476.00000
    10.3399     6219.00000
    10.3530     6424.00000
    10.3661     6276.00000
    10.3792     6291.00000
    10.3924     6136.00000
    10.4055     6383.00000
    10.4186     6273.00000
    10.4318     6469.00000
    10.4449     6391.00000
    10.4580     6186.00000
    10.4712     6106.00000
    10.4843     6221.00000
    10.4974     6343.00000
    10.5105     6187.00000
    10.5237     6194.00000
    10.5368     6118.00000
    10.5499     6333.00000
    10.5631     6337.00000
    10.5762     6212.00000
    10.5893     6309.00000
    10.6025     6186.00000
    10.6156     6236.00000
    10.6287     6340.00000
    10.6418     6355.00000
    10.6550     6257.00000
    10.6681     6368.00000
    10.6812     6216.00000
    10.6944     6191.00000
    10.7075     6194.00000
    10.7206     6182.00000
    10.7338     6240.00000
    10.7469     6257.00000
    10.7600     6312.00000
    10.7732     6481.00000
    10.7863     6365.00000
    10.7994     6491.00000
    10.8125     6376.00000
    10.8257     6407.00000
    10.8388     6516.00000
    10.8519     6563.00000
    10.8651     6489.00000
    10.8782     6667.00000
    10.8913     6843.00000
    10.9045     6714.00000
    10.9176     6858.00000
    10.9307     7073.00000
    10.9438     7268.00000
    10.9570     7599.00000
    10.9701     7947.00000
    10.9832     8599.00000
    10.9964     9422.00000
    11.0095    10476.00000
    11.0226    11857.00000
    11.0358    14617.00000
    11.0489    19236.00000
    11.0620    24607.00000
    11.0751    31536.00000
    11.0883    41259.00000
    11.1014    48935.00000
    11.1145    52555.00000
    11.1277    49505.00000
    11.1408    42015.00000
    11.1539    34638.00000
    11.1671    28261.00000
    11.1802    21289.00000
    11.1933    15926.00000
    11.2065    12098.00000
    11.2196     9711.00000
    11.2327     8338.00000
    11.2458     7687.00000
    11.2590     7112.00000
    11.2721     6989.00000
    11.2852     6869.00000
    11.2984     6539.00000
    11.3115     6456.00000
    11.3246     6326.00000
    11.3378     6214.00000
    11.3509     6145.00000
    11.3640     6143.00000
    11.3771     6074.00000
    11.3903     6223.00000
    11.4034     6004.00000
    11.4165     6152.00000
    11.4297     6119.00000
    11.4428     6021.00000
    11.4559     6011.00000
    11.4691     6090.00000
    11.4822     6011.00000
    11.4953     6166.00000
    11.5084     5966.00000
    11.5216     6097.00000
    11.5347     5990.00000
    11.5478     6094.00000
    11.5610     6034.00000
    11.5741     5959.00000
    11.5872     5838.00000
    11.6004     6007.00000
    11.6135     5898.00000
    11.6266     5924.00000
    11.6398     5942.00000
    11.6529     5967.00000
    11.6660     6005.00000
    11.6791     6041.00000
    11.6923     5864.00000
    11.7054     5991.00000
    11.7185     5759.00000
    11.7317     5867.00000
    11.7448     5965.00000
    11.7579     5904.00000
    11.7711     5780.00000
    11.7842     5897.00000
    11.7973     5861.00000
    11.8104     5857.00000
    11.8236     6007.00000
    11.8367     5834.00000
    11.8498     5801.00000
    11.8630     5835.00000
    11.8761     5866.00000
    11.8892     5795.00000
    11.9024     5857.00000
    11.9155     5785.00000
    11.9286     5701.00000
    11.9417     5810.00000
    11.9549     5678.00000
    11.9680     5859.00000
    11.9811     5726.00000
    11.9943     5700.00000
    12.0074     5651.00000
    12.0205     5587.00000
    12.0337     5708.00000
    12.0468     5861.00000
    12.0599     5737.00000
    12.0731     5679.00000
    12.0862     5687.00000
    12.0993     5818.00000
    12.1124     5689.00000
    12.1256     5679.00000
    12.1387     5828.00000
    12.1518     5561.00000
    12.1650     5729.00000
    12.1781     5670.00000
    12.1912     5611.00000
    12.2044     5708.00000
    12.2175     5736.00000
    12.2306     5863.00000
    12.2437     5569.00000
    12.2569     5670.00000
    12.2700     5605.00000
    12.2831     5583.00000
    12.2963     5605.00000
    12.3094     5804.00000
    12.3225     5582.00000
    12.3357     5566.00000
    12.3488     5572.00000
    12.3619     5708.00000
    12.3750     5613.00000
    12.3882     5701.00000
    12.4013     5416.00000
    12.4144     5540.00000
    12.4276     5601.00000
    12.4407     5648.00000
    12.4538     5569.00000
    12.4670     5529.00000
    12.4801     5630.00000
    12.4932     5444.00000
    12.5063     5443.00000
    12.5195     5544.00000
    12.5326     5553.00000
    12.5457     5455.00000
    12.5589     5566.00000
    12.5720     5546.00000
    12.5851     5581.00000
    12.5983     5497.00000
    12.6114     5508.00000
    12.6245     5589.00000
    12.6377     5505.00000
    12.6508     5355.00000
    12.6639     5497.00000
    12.6770     5405.00000
    12.6902     5501.00000
    12.7033     5590.00000
    12.7164     5562.00000
    12.7296     5546.00000
    12.7427     5497.00000
    12.7558     5568.00000
    12.7690     5516.00000
    12.7821     5465.00000
    12.7952     5482.00000
    12.8083     5626.00000
    12.8215     5454.00000
    12.8346     5440.00000
    12.8477     5579.00000
    12.8609     5454.00000
    12.8740     5351.00000
    12.8871     5447.00000
    12.9003     5443.00000
    12.9134     5406.00000
    12.9265     5476.00000
    12.9396     5490.00000
    12.9528     5392.00000
    12.9659     5458.00000
    12.9790     5477.00000
    12.9922     5403.00000
    13.0053     5540.00000
    13.0184     5412.00000
    13.0316     5472.00000
    13.0447     5394.00000
    13.0578     5310.00000
    13.0710     5240.00000
    13.0841     5328.00000
    13.0972     5528.00000
    13.1103     5417.00000
    13.1235     5454.00000
    13.1366     5449.00000
    13.1497     5431.00000
    13.1629     5243.00000
    13.1760     5363.00000
    13.1891     5401.00000
    13.2023     5527.00000
    13.2154     5446.00000
    13.2285     5563.00000
    13.2416     5329.00000
    13.2548     5346.00000
    13.2679     5400.00000
    13.2810     5307.00000
    13.2942     5342.00000
    13.3073     5260.00000
    13.3204     5319.00000
    13.3336     5276.00000
    13.3467     5358.00000
    13.3598     5200.00000
    13.3729     5249.00000
    13.3861     5333.00000
    13.3992     5293.00000
    13.4123     5268.00000
    13.4255     5276.00000
    13.4386     5268.00000
    13.4517     5229.00000
    13.4649     5359.00000
    13.4780     5346.00000
    13.4911     5373.00000
    13.5043     5305.00000
    13.5174     5296.00000
    13.5305     5304.00000
    13.5436     5382.00000
    13.5568     5281.00000
    13.5699     5305.00000
    13.5830     5112.00000
    13.5962     5284.00000
    13.6093     5263.00000
    13.6224     5161.00000
    13.6356     5340.00000
    13.6487     5279.00000
    13.6618     5185.00000
    13.6749     5334.00000
    13.6881     5443.00000
    13.7012     5188.00000
    13.7143     5226.00000
    13.7275     5125.00000
    13.7406     5195.00000
    13.7537     5207.00000
    13.7669     5199.00000
    13.7800     5107.00000
    13.7931     5215.00000
    13.8062     5105.00000
    13.8194     5138.00000
    13.8325     5160.00000
    13.8456     5119.00000
    13.8588     5124.00000
    13.8719     5274.00000
    13.8850     5100.00000
    13.8982     5051.00000
    13.9113     5156.00000
    13.9244     5084.00000
    13.9376     5157.00000
    13.9507     5212.00000
    13.9638     5080.00000
    13.9769     5044.00000
    13.9901     5124.00000
    14.0032     5113.00000
    14.0163     5105.00000
    14.0295     5077.00000
    14.0426     5017.00000
    14.0557     5138.00000
    14.0689     5038.00000
    14.0820     5062.00000
    14.0951     4998.00000
    14.1082     4981.00000
    14.1214     5004.00000
    14.1345     5107.00000
    14.1476     5203.00000
    14.1608     5073.00000
    14.1739     5118.00000
    14.1870     5158.00000
    14.2002     5310.00000
    14.2133     5099.00000
    14.2264     5180.00000
    14.2395     4970.00000
    14.2527     5017.00000
    14.2658     5079.00000
    14.2789     4974.00000
    14.2921     5141.00000
    14.3052     5061.00000
    14.3183     5032.00000
    14.3315     4998.00000
    14.3446     5042.00000
    14.3577     4967.00000
    14.3708     4990.00000
    14.3840     5063.00000
    14.3971     5005.00000
    14.4102     5091.00000
    14.4234     5002.00000
    14.4365     4992.00000
    14.4496     5113.00000
    14.4628     4787.00000
    14.4759     5051.00000
    14.4890     5032.00000
    14.5022     4970.00000
    14.5153     4855.00000
    14.5284     5044.00000
    14.5415     4981.00000
    14.5547     4980.00000
    14.5678     5028.00000
    14.5809     4877.00000
    14.5941     4960.00000
    14.6072     5053.00000
    14.6203     4994.00000
    14.6335     4885.00000
    14.6466     4962.00000
    14.6597     4885.00000
    14.6728     4934.00000
    14.6860     4809.00000
    14.6991     5089.00000
    14.7122     5128.00000
    14.7254     5090.00000
    14.7385     4924.00000
    14.7516     4837.00000
    14.7648     4762.00000
    14.7779     4896.00000
    14.7910     4900.00000
    14.8041     4842.00000
    14.8173     4964.00000
    14.8304     4887.00000
    14.8435     4700.00000
    14.8567     4963.00000
    14.8698     4828.00000
    14.8829     4845.00000
    14.8961     4912.00000
    14.9092     4900.00000
    14.9223     4759.00000
    14.9355     4777.00000
    14.9486     5031.00000
    14.9617     4874.00000
    14.9748     4804.00000
    14.9880     4771.00000
    15.0011     4842.00000
    15.0142     4895.00000
    15.0274     4909.00000
    15.0405     4795.00000
    15.0536     4866.00000
    15.0668     4938.00000
    15.0799     4771.00000
    15.0930     4818.00000
    15.1061     4980.00000
    15.1193     4902.00000
    15.1324     4887.00000
    15.1455     4843.00000
    15.1587     4872.00000
    15.1718     4907.00000
    15.1849     4848.00000
    15.1981     4888.00000
    15.2112     4934.00000
    15.2243     4827.00000
    15.2374     4972.00000
    15.2506     4726.00000
    15.2637     4752.00000
    15.2768     4810.00000
    15.2900     4771.00000
    15.3031     4842.00000
    15.3162     4822.00000
    15.3294     4883.00000
    15.3425     4772.00000
    15.3556     4835.00000
    15.3688     4888.00000
    15.3819     4709.00000
    15.3950     4796.00000
    15.4081     4860.00000
    15.4213     4775.00000
    15.4344     4726.00000
    15.4475     4806.00000
    15.4607     4879.00000
    15.4738     4804.00000
    15.4869     4747.00000
    15.5001     4783.00000
    15.5132     4681.00000
    15.5263     4801.00000
    15.5394     4723.00000
    15.5526     4692.00000
    15.5657     4637.00000
    15.5788     4684.00000
    15.5920     4776.00000
    15.6051     4650.00000
    15.6182     4667.00000
    15.6314     4774.00000
    15.6445     4749.00000
    15.6576     4735.00000
    15.6707     4767.00000
    15.6839     4684.00000
    15.6970     4759.00000
    15.7101     4749.00000
    15.7233     4726.00000
    15.7364     4743.00000
    15.7495     4626.00000
    15.7627     4815.00000
    15.7758     4803.00000
    15.7889     4726.00000
    15.8021     4810.00000
    15.8152     4631.00000
    15.8283     4706.00000
    15.8414     4697.00000
    15.8546     4705.00000
    15.8677     4606.00000
    15.8808     4701.00000
    15.8940     4692.00000
    15.9071     4749.00000
    15.9202     4639.00000
    15.9334     4624.00000
    15.9465     4698.00000
    15.9596     4722.00000
    15.9727     4711.00000
    15.9859     4682.00000
    15.9990     4690.00000
    16.0121     4680.00000
    16.0253     4642.00000
    16.0384     4781.00000
    16.0515     4772.00000
    16.0647     4725.00000
    16.0778     4794.00000
    16.0909     4755.00000
    16.1040     4759.00000
    16.1172     4790.00000
    16.1303     4850.00000
    16.1434     4710.00000
    16.1566     4947.00000
    16.1697     5007.00000
    16.1828     4824.00000
    16.1960     4745.00000
    16.2091     4845.00000
    16.2222     4697.00000
    16.2353     4897.00000
    16.2485     4941.00000
    16.2616     4728.00000
    16.2747     4955.00000
    16.2879     4964.00000
    16.3010     4859.00000
    16.3141     4779.00000
    16.3273     4762.00000
    16.3404     4763.00000
    16.3535     4784.00000
    16.3667     4789.00000
    16.3798     4743.00000
    16.3929     4704.00000
    16.4060     4878.00000
    16.4192     4776.00000
    16.4323     4621.00000
    16.4454     4857.00000
    16.4586     4636.00000
    16.4717     4754.00000
    16.4848     4735.00000
    16.4980     4838.00000
    16.5111     4773.00000
    16.5242     4741.00000
    16.5373     4713.00000
    16.5505     4709.00000
    16.5636     4626.00000
    16.5767     4697.00000
    16.5899     4734.00000
    16.6030     4772.00000
    16.6161     4573.00000
    16.6293     4615.00000
    16.6424     4457.00000
    16.6555     4595.00000
    16.6686     4649.00000
    16.6818     4611.00000
    16.6949     4553.00000
    16.7080     4571.00000
    16.7212     4442.00000
    16.7343     4512.00000
    16.7474     4512.00000
    16.7606     4608.00000
    16.7737     4607.00000
    16.7868     4543.00000
    16.8000     4728.00000
    16.8131     4663.00000
    16.8262     4582.00000
    16.8393     4691.00000
    16.8525     4586.00000
    16.8656     4456.00000
    16.8787     4624.00000
    16.8919     4445.00000
    16.9050     4674.00000
    16.9181     4581.00000
    16.9313     4568.00000
    16.9444     4493.00000
    16.9575     4473.00000
    16.9706     4444.00000
    16.9838     4430.00000
    16.9969     4446.00000
    17.0100     4587.00000
    17.0232     4691.00000
    17.0363     4463.00000
    17.0494     4516.00000
    17.0626     4555.00000
    17.0757     4534.00000
    17.0888     4506.00000
    17.1019     4662.00000
    17.1151     4507.00000
    17.1282     4466.00000
    17.1413     4658.00000
    17.1545     4672.00000
    17.1676     4555.00000
    17.1807     4646.00000
    17.1939     4478.00000
    17.2070     4730.00000
    17.2201     4760.00000
    17.2333     4755.00000
    17.2464     4823.00000
    17.2595     4738.00000
    17.2726     4571.00000
    17.2858     4654.00000
    17.2989     4513.00000
    17.3120     4634.00000
    17.3252     4577.00000
    17.3383     4514.00000
    17.3514     4545.00000
    17.3646     4457.00000
    17.3777     4536.00000
    17.3908     4420.00000
    17.4039     4442.00000
    17.4171     4450.00000
    17.4302     4504.00000
    17.4433     4360.00000
    17.4565     4471.00000
    17.4696     4411.00000
    17.4827     4511.00000
    17.4959     4448.00000
    17.5090     4311.00000
    17.5221     4358.00000
    17.5352     4401.00000
    17.5484     4270.00000
    17.5615     4431.00000
    17.5746     4510.00000
    17.5878     4420.00000
    17.6009     4494.00000
    17.6140     4480.00000
    17.6272     4520.00000
    17.6403     4404.00000
    17.6534     4522.00000
    17.6666     4618.00000
    17.6797     4510.00000
    17.6928     4657.00000
    17.7059     4653.00000
    17.7191     4693.00000
    17.7322     4677.00000
    17.7453     4777.00000
    17.7585     4692.00000
    17.7716     4531.00000
    17.7847     4525.00000
    17.7979     4506.00000
    17.8110     4470.00000
    17.8241     4429.00000
    17.8372     4325.00000
    17.8504     4333.00000
    17.8635     4364.00000
    17.8766     4308.00000
    17.8898     4238.00000
    17.9029     4274.00000
    17.9160     4323.00000
    17.9292     4350.00000
    17.9423     4287.00000
    17.9554     4284.00000
    17.9685     4487.00000
    17.9817     4365.00000
    17.9948     4299.00000
    18.0079     4354.00000
    18.0211     4239.00000
    18.0342     4364.00000
    18.0473     4192.00000
    18.0605     4383.00000
    18.0736     4335.00000
    18.0867     4286.00000
    18.0998     4352.00000
    18.1130     4344.00000
    18.1261     4386.00000
    18.1392     4267.00000
    18.1524     4299.00000
    18.1655     4259.00000
    18.1786     4346.00000
    18.1918     4212.00000
    18.2049     4343.00000
    18.2180     4327.00000
    18.2312     4340.00000
    18.2443     4365.00000
    18.2574     4306.00000
    18.2705     4316.00000
    18.2837     4265.00000
    18.2968     4254.00000
    18.3099     4178.00000
    18.3231     4267.00000
    18.3362     4371.00000
    18.3493     4239.00000
    18.3625     4118.00000
    18.3756     4188.00000
    18.3887     4256.00000
    18.4018     4234.00000
    18.4150     4374.00000
    18.4281     4192.00000
    18.4412     4266.00000
    18.4544     4166.00000
    18.4675     4146.00000
    18.4806     4221.00000
    18.4938     4257.00000
    18.5069     4209.00000
    18.5200     4299.00000
    18.5331     4407.00000
    18.5463     4180.00000
    18.5594     4280.00000
    18.5725     4309.00000
    18.5857     4311.00000
    18.5988     4394.00000
    18.6119     4293.00000
    18.6251     4326.00000
    18.6382     4389.00000
    18.6513     4252.00000
    18.6645     4164.00000
    18.6776     4268.00000
    18.6907     4318.00000
    18.7038     4289.00000
    18.7170     4222.00000
    18.7301     4200.00000
    18.7432     4270.00000
    18.7564     4095.00000
    18.7695     4261.00000
    18.7826     4212.00000
    18.7958     4195.00000
    18.8089     4131.00000
    18.8220     4223.00000
    18.8351     4187.00000
    18.8483     4210.00000
    18.8614     4147.00000
    18.8745     4114.00000
    18.8877     4055.00000
    18.9008     4311.00000
    18.9139     4149.00000
    18.9271     4181.00000
    18.9402     4214.00000
    18.9533     4219.00000
