! Initial file:   D:\ZAKARY_OUAIL\MA_THESE\Deuxième_année_de_thèse\DRX\Manips_DRX\1st_NaTaO2F2_XRK900\NaTaO2F2-Lent_240°C.xrdml
! Initial format:  58
! WAVE (A):      1.54060     1.54060     1.00000
! REM : data have been multiplied by     1.0000
! X_data : 2 Theta (deg.)                                                                                                                                                                                                                                                  
! Y_data : Intensity (arb. units)                                                                                                                                                                                                                                          
!     X         Y
!--------------------------------------------------------------------------------
    10.0116     6552.00000
    10.0247     6490.00000
    10.0379     6550.00000
    10.0510     6551.00000
    10.0641     6355.00000
    10.0772     6425.00000
    10.0904     6537.00000
    10.1035     6474.00000
    10.1166     6232.00000
    10.1298     6479.00000
    10.1429     6291.00000
    10.1560     6413.00000
    10.1692     6299.00000
    10.1823     6448.00000
    10.1954     6350.00000
    10.2086     6373.00000
    10.2217     6381.00000
    10.2348     6379.00000
    10.2479     6195.00000
    10.2611     6312.00000
    10.2742     6437.00000
    10.2873     6422.00000
    10.3005     6292.00000
    10.3136     6297.00000
    10.3267     6243.00000
    10.3399     6252.00000
    10.3530     6268.00000
    10.3661     6248.00000
    10.3792     6164.00000
    10.3924     6315.00000
    10.4055     6284.00000
    10.4186     6336.00000
    10.4318     6258.00000
    10.4449     6356.00000
    10.4580     6473.00000
    10.4712     6215.00000
    10.4843     6306.00000
    10.4974     6230.00000
    10.5105     6323.00000
    10.5237     6172.00000
    10.5368     6187.00000
    10.5499     6216.00000
    10.5631     6331.00000
    10.5762     6222.00000
    10.5893     6215.00000
    10.6025     6315.00000
    10.6156     6367.00000
    10.6287     6210.00000
    10.6418     6106.00000
    10.6550     6252.00000
    10.6681     6204.00000
    10.6812     6112.00000
    10.6944     6094.00000
    10.7075     6229.00000
    10.7206     6341.00000
    10.7338     6231.00000
    10.7469     6381.00000
    10.7600     6350.00000
    10.7732     6362.00000
    10.7863     6366.00000
    10.7994     6428.00000
    10.8125     6502.00000
    10.8257     6531.00000
    10.8388     6291.00000
    10.8519     6497.00000
    10.8651     6395.00000
    10.8782     6454.00000
    10.8913     6708.00000
    10.9045     6831.00000
    10.9176     6854.00000
    10.9307     6940.00000
    10.9438     7186.00000
    10.9570     7444.00000
    10.9701     7926.00000
    10.9832     8500.00000
    10.9964     9326.00000
    11.0095    10706.00000
    11.0226    12391.00000
    11.0358    15166.00000
    11.0489    19678.00000
    11.0620    24691.00000
    11.0751    31266.00000
    11.0883    40707.00000
    11.1014    48168.00000
    11.1145    49999.00000
    11.1277    47514.00000
    11.1408    40494.00000
    11.1539    33715.00000
    11.1671    27211.00000
    11.1802    20500.00000
    11.1933    15906.00000
    11.2065    12280.00000
    11.2196     9648.00000
    11.2327     8640.00000
    11.2458     7696.00000
    11.2590     7068.00000
    11.2721     6796.00000
    11.2852     6659.00000
    11.2984     6491.00000
    11.3115     6384.00000
    11.3246     6169.00000
    11.3378     6143.00000
    11.3509     6023.00000
    11.3640     6138.00000
    11.3771     6019.00000
    11.3903     6063.00000
    11.4034     6060.00000
    11.4165     6147.00000
    11.4297     6122.00000
    11.4428     6056.00000
    11.4559     5826.00000
    11.4691     6028.00000
    11.4822     5949.00000
    11.4953     5996.00000
    11.5084     5983.00000
    11.5216     5939.00000
    11.5347     5944.00000
    11.5478     5825.00000
    11.5610     5850.00000
    11.5741     5897.00000
    11.5872     5903.00000
    11.6004     5998.00000
    11.6135     5998.00000
    11.6266     5784.00000
    11.6398     5746.00000
    11.6529     5753.00000
    11.6660     5824.00000
    11.6791     5804.00000
    11.6923     5820.00000
    11.7054     5764.00000
    11.7185     5674.00000
    11.7317     5814.00000
    11.7448     5854.00000
    11.7579     5858.00000
    11.7711     5745.00000
    11.7842     5800.00000
    11.7973     5782.00000
    11.8104     5715.00000
    11.8236     5712.00000
    11.8367     5751.00000
    11.8498     5923.00000
    11.8630     5927.00000
    11.8761     5728.00000
    11.8892     5736.00000
    11.9024     5782.00000
    11.9155     5733.00000
    11.9286     5734.00000
    11.9417     5741.00000
    11.9549     5672.00000
    11.9680     5705.00000
    11.9811     5571.00000
    11.9943     5707.00000
    12.0074     5641.00000
    12.0205     5738.00000
    12.0337     5696.00000
    12.0468     5767.00000
    12.0599     5777.00000
    12.0731     5690.00000
    12.0862     5557.00000
    12.0993     5721.00000
    12.1124     5654.00000
    12.1256     5793.00000
    12.1387     5621.00000
    12.1518     5509.00000
    12.1650     5681.00000
    12.1781     5694.00000
    12.1912     5551.00000
    12.2044     5688.00000
    12.2175     5591.00000
    12.2306     5724.00000
    12.2437     5730.00000
    12.2569     5554.00000
    12.2700     5724.00000
    12.2831     5541.00000
    12.2963     5500.00000
    12.3094     5777.00000
    12.3225     5527.00000
    12.3357     5488.00000
    12.3488     5702.00000
    12.3619     5545.00000
    12.3750     5512.00000
    12.3882     5481.00000
    12.4013     5578.00000
    12.4144     5576.00000
    12.4276     5559.00000
    12.4407     5480.00000
    12.4538     5448.00000
    12.4670     5593.00000
    12.4801     5309.00000
    12.4932     5450.00000
    12.5063     5534.00000
    12.5195     5477.00000
    12.5326     5616.00000
    12.5457     5559.00000
    12.5589     5561.00000
    12.5720     5486.00000
    12.5851     5580.00000
    12.5983     5577.00000
    12.6114     5563.00000
    12.6245     5473.00000
    12.6377     5449.00000
    12.6508     5437.00000
    12.6639     5434.00000
    12.6770     5538.00000
    12.6902     5449.00000
    12.7033     5440.00000
    12.7164     5547.00000
    12.7296     5424.00000
    12.7427     5447.00000
    12.7558     5447.00000
    12.7690     5439.00000
    12.7821     5448.00000
    12.7952     5367.00000
    12.8083     5345.00000
    12.8215     5437.00000
    12.8346     5463.00000
    12.8477     5481.00000
    12.8609     5392.00000
    12.8740     5459.00000
    12.8871     5306.00000
    12.9003     5389.00000
    12.9134     5346.00000
    12.9265     5333.00000
    12.9396     5496.00000
    12.9528     5311.00000
    12.9659     5338.00000
    12.9790     5402.00000
    12.9922     5375.00000
    13.0053     5389.00000
    13.0184     5200.00000
    13.0316     5486.00000
    13.0447     5464.00000
    13.0578     5354.00000
    13.0710     5340.00000
    13.0841     5272.00000
    13.0972     5378.00000
    13.1103     5353.00000
    13.1235     5272.00000
    13.1366     5264.00000
    13.1497     5253.00000
    13.1629     5296.00000
    13.1760     5395.00000
    13.1891     5226.00000
    13.2023     5355.00000
    13.2154     5318.00000
    13.2285     5186.00000
    13.2416     5361.00000
    13.2548     5258.00000
    13.2679     5232.00000
    13.2810     5255.00000
    13.2942     5374.00000
    13.3073     5204.00000
    13.3204     5314.00000
    13.3336     5367.00000
    13.3467     5156.00000
    13.3598     5342.00000
    13.3729     5379.00000
    13.3861     5378.00000
    13.3992     5238.00000
    13.4123     5204.00000
    13.4255     5252.00000
    13.4386     5181.00000
    13.4517     5324.00000
    13.4649     5328.00000
    13.4780     5410.00000
    13.4911     5368.00000
    13.5043     5343.00000
    13.5174     5222.00000
    13.5305     5163.00000
    13.5436     5018.00000
    13.5568     5163.00000
    13.5699     5194.00000
    13.5830     5083.00000
    13.5962     5244.00000
    13.6093     5180.00000
    13.6224     5296.00000
    13.6356     5201.00000
    13.6487     5184.00000
    13.6618     5088.00000
    13.6749     5212.00000
    13.6881     5309.00000
    13.7012     5114.00000
    13.7143     5071.00000
    13.7275     5187.00000
    13.7406     5232.00000
    13.7537     5198.00000
    13.7669     5132.00000
    13.7800     5158.00000
    13.7931     5137.00000
    13.8062     5137.00000
    13.8194     5174.00000
    13.8325     5058.00000
    13.8456     5161.00000
    13.8588     5236.00000
    13.8719     5237.00000
    13.8850     5130.00000
    13.8982     4956.00000
    13.9113     5164.00000
    13.9244     5197.00000
    13.9376     5115.00000
    13.9507     5149.00000
    13.9638     5121.00000
    13.9769     4911.00000
    13.9901     5016.00000
    14.0032     5081.00000
    14.0163     5043.00000
    14.0295     5235.00000
    14.0426     5197.00000
    14.0557     5107.00000
    14.0689     5187.00000
    14.0820     4957.00000
    14.0951     5040.00000
    14.1082     5005.00000
    14.1214     4960.00000
    14.1345     4977.00000
    14.1476     5001.00000
    14.1608     5198.00000
    14.1739     5014.00000
    14.1870     5096.00000
    14.2002     5070.00000
    14.2133     5070.00000
    14.2264     4994.00000
    14.2395     5009.00000
    14.2527     5006.00000
    14.2658     5017.00000
    14.2789     4938.00000
    14.2921     4979.00000
    14.3052     4965.00000
    14.3183     5119.00000
    14.3315     5017.00000
    14.3446     5053.00000
    14.3577     5009.00000
    14.3708     5200.00000
    14.3840     5022.00000
    14.3971     4972.00000
    14.4102     4909.00000
    14.4234     5019.00000
    14.4365     4950.00000
    14.4496     4933.00000
    14.4628     4856.00000
    14.4759     5150.00000
    14.4890     4941.00000
    14.5022     4981.00000
    14.5153     4903.00000
    14.5284     4898.00000
    14.5415     4963.00000
    14.5547     4870.00000
    14.5678     4905.00000
    14.5809     4865.00000
    14.5941     4883.00000
    14.6072     4902.00000
    14.6203     4849.00000
    14.6335     5012.00000
    14.6466     4929.00000
    14.6597     4846.00000
    14.6728     4898.00000
    14.6860     4954.00000
    14.6991     4936.00000
    14.7122     4901.00000
    14.7254     4939.00000
    14.7385     4868.00000
    14.7516     4921.00000
    14.7648     4894.00000
    14.7779     4880.00000
    14.7910     4859.00000
    14.8041     5046.00000
    14.8173     4966.00000
    14.8304     4910.00000
    14.8435     4811.00000
    14.8567     4786.00000
    14.8698     4849.00000
    14.8829     4963.00000
    14.8961     4930.00000
    14.9092     4785.00000
    14.9223     4833.00000
    14.9355     4921.00000
    14.9486     4810.00000
    14.9617     4834.00000
    14.9748     4898.00000
    14.9880     4720.00000
    15.0011     4901.00000
    15.0142     4801.00000
    15.0274     4875.00000
    15.0405     4861.00000
    15.0536     4900.00000
    15.0668     4789.00000
    15.0799     4924.00000
    15.0930     4949.00000
    15.1061     4716.00000
    15.1193     4797.00000
    15.1324     4772.00000
    15.1455     4727.00000
    15.1587     4777.00000
    15.1718     4876.00000
    15.1849     4938.00000
    15.1981     4801.00000
    15.2112     4723.00000
    15.2243     4780.00000
    15.2374     4824.00000
    15.2506     4792.00000
    15.2637     4926.00000
    15.2768     4765.00000
    15.2900     4743.00000
    15.3031     4858.00000
    15.3162     4660.00000
    15.3294     4799.00000
    15.3425     4847.00000
    15.3556     4804.00000
    15.3688     4663.00000
    15.3819     4736.00000
    15.3950     4735.00000
    15.4081     4592.00000
    15.4213     4728.00000
    15.4344     4867.00000
    15.4475     4698.00000
    15.4607     4757.00000
    15.4738     4686.00000
    15.4869     4711.00000
    15.5001     4720.00000
    15.5132     4792.00000
    15.5263     4607.00000
    15.5394     4701.00000
    15.5526     4749.00000
    15.5657     4796.00000
    15.5788     4712.00000
    15.5920     4690.00000
    15.6051     4642.00000
    15.6182     4879.00000
    15.6314     4708.00000
    15.6445     4702.00000
    15.6576     4717.00000
    15.6707     4683.00000
    15.6839     4814.00000
    15.6970     4596.00000
    15.7101     4738.00000
    15.7233     4685.00000
    15.7364     4741.00000
    15.7495     4721.00000
    15.7627     4700.00000
    15.7758     4766.00000
    15.7889     4737.00000
    15.8021     4684.00000
    15.8152     4723.00000
    15.8283     4642.00000
    15.8414     4728.00000
    15.8546     4776.00000
    15.8677     4580.00000
    15.8808     4614.00000
    15.8940     4645.00000
    15.9071     4592.00000
    15.9202     4690.00000
    15.9334     4691.00000
    15.9465     4742.00000
    15.9596     4718.00000
    15.9727     4705.00000
    15.9859     4694.00000
    15.9990     4708.00000
    16.0121     4711.00000
    16.0253     4719.00000
    16.0384     4703.00000
    16.0515     4766.00000
    16.0647     4850.00000
    16.0778     4772.00000
    16.0909     4657.00000
    16.1040     4664.00000
    16.1172     4770.00000
    16.1303     4819.00000
    16.1434     4770.00000
    16.1566     4857.00000
    16.1697     4867.00000
    16.1828     4750.00000
    16.1960     4805.00000
    16.2091     4717.00000
    16.2222     4823.00000
    16.2353     4766.00000
    16.2485     5009.00000
    16.2616     4737.00000
    16.2747     4897.00000
    16.2879     4766.00000
    16.3010     4796.00000
    16.3141     4861.00000
    16.3273     4640.00000
    16.3404     4798.00000
    16.3535     4881.00000
    16.3667     4824.00000
    16.3798     4763.00000
    16.3929     4835.00000
    16.4060     4767.00000
    16.4192     4680.00000
    16.4323     4812.00000
    16.4454     4825.00000
    16.4586     4707.00000
    16.4717     4732.00000
    16.4848     4694.00000
    16.4980     4632.00000
    16.5111     4633.00000
    16.5242     4725.00000
    16.5373     4647.00000
    16.5505     4811.00000
    16.5636     4655.00000
    16.5767     4632.00000
    16.5899     4500.00000
    16.6030     4611.00000
    16.6161     4569.00000
    16.6293     4637.00000
    16.6424     4631.00000
    16.6555     4615.00000
    16.6686     4490.00000
    16.6818     4623.00000
    16.6949     4553.00000
    16.7080     4424.00000
    16.7212     4496.00000
    16.7343     4537.00000
    16.7474     4660.00000
    16.7606     4519.00000
    16.7737     4438.00000
    16.7868     4515.00000
    16.8000     4567.00000
    16.8131     4449.00000
    16.8262     4650.00000
    16.8393     4485.00000
    16.8525     4573.00000
    16.8656     4532.00000
    16.8787     4547.00000
    16.8919     4413.00000
    16.9050     4475.00000
    16.9181     4397.00000
    16.9313     4490.00000
    16.9444     4562.00000
    16.9575     4471.00000
    16.9706     4554.00000
    16.9838     4432.00000
    16.9969     4537.00000
    17.0100     4598.00000
    17.0232     4629.00000
    17.0363     4581.00000
    17.0494     4536.00000
    17.0626     4492.00000
    17.0757     4526.00000
    17.0888     4534.00000
    17.1019     4451.00000
    17.1151     4448.00000
    17.1282     4568.00000
    17.1413     4581.00000
    17.1545     4579.00000
    17.1676     4428.00000
    17.1807     4533.00000
    17.1939     4549.00000
    17.2070     4630.00000
    17.2201     4557.00000
    17.2333     4596.00000
    17.2464     4786.00000
    17.2595     4657.00000
    17.2726     4666.00000
    17.2858     4487.00000
    17.2989     4627.00000
    17.3120     4566.00000
    17.3252     4506.00000
    17.3383     4383.00000
    17.3514     4385.00000
    17.3646     4405.00000
    17.3777     4561.00000
    17.3908     4559.00000
    17.4039     4381.00000
    17.4171     4313.00000
    17.4302     4523.00000
    17.4433     4417.00000
    17.4565     4377.00000
    17.4696     4463.00000
    17.4827     4366.00000
    17.4959     4356.00000
    17.5090     4342.00000
    17.5221     4258.00000
    17.5352     4428.00000
    17.5484     4449.00000
    17.5615     4434.00000
    17.5746     4460.00000
    17.5878     4519.00000
    17.6009     4436.00000
    17.6140     4374.00000
    17.6272     4391.00000
    17.6403     4445.00000
    17.6534     4433.00000
    17.6666     4447.00000
    17.6797     4460.00000
    17.6928     4631.00000
    17.7059     4679.00000
    17.7191     4730.00000
    17.7322     4644.00000
    17.7453     4777.00000
    17.7585     4628.00000
    17.7716     4604.00000
    17.7847     4378.00000
    17.7979     4530.00000
    17.8110     4487.00000
    17.8241     4514.00000
    17.8372     4455.00000
    17.8504     4507.00000
    17.8635     4325.00000
    17.8766     4320.00000
    17.8898     4475.00000
    17.9029     4407.00000
    17.9160     4332.00000
    17.9292     4325.00000
    17.9423     4429.00000
    17.9554     4321.00000
    17.9685     4345.00000
    17.9817     4338.00000
    17.9948     4344.00000
    18.0079     4351.00000
    18.0211     4333.00000
    18.0342     4270.00000
    18.0473     4292.00000
    18.0605     4297.00000
    18.0736     4286.00000
    18.0867     4257.00000
    18.0998     4283.00000
    18.1130     4168.00000
    18.1261     4273.00000
    18.1392     4345.00000
    18.1524     4281.00000
    18.1655     4243.00000
    18.1786     4303.00000
    18.1918     4159.00000
    18.2049     4312.00000
    18.2180     4219.00000
    18.2312     4180.00000
    18.2443     4200.00000
    18.2574     4141.00000
    18.2705     4168.00000
    18.2837     4305.00000
    18.2968     4222.00000
    18.3099     4251.00000
    18.3231     4341.00000
    18.3362     4333.00000
    18.3493     4191.00000
    18.3625     4248.00000
    18.3756     4275.00000
    18.3887     4215.00000
    18.4018     4357.00000
    18.4150     4335.00000
    18.4281     4303.00000
    18.4412     4272.00000
    18.4544     4213.00000
    18.4675     4229.00000
    18.4806     4213.00000
    18.4938     4216.00000
    18.5069     4238.00000
    18.5200     4199.00000
    18.5331     4217.00000
    18.5463     4394.00000
    18.5594     4188.00000
    18.5725     4143.00000
    18.5857     4287.00000
    18.5988     4238.00000
    18.6119     4319.00000
    18.6251     4272.00000
    18.6382     4315.00000
    18.6513     4398.00000
    18.6645     4229.00000
    18.6776     4286.00000
    18.6907     4158.00000
    18.7038     4269.00000
    18.7170     4385.00000
    18.7301     4231.00000
    18.7432     4251.00000
    18.7564     4155.00000
    18.7695     4120.00000
    18.7826     4089.00000
    18.7958     4125.00000
    18.8089     4157.00000
    18.8220     4188.00000
    18.8351     4252.00000
    18.8483     4214.00000
    18.8614     4154.00000
    18.8745     4140.00000
    18.8877     4164.00000
    18.9008     4186.00000
    18.9139     4160.00000
    18.9271     4311.00000
    18.9402     4201.00000
    18.9533     4301.00000
