! Initial file:   D:\ZAKARY_OUAIL\MA_THESE\Deuxième_année_de_thèse\DRX\Manips_DRX\1st_NaTaO2F2_XRK900\NaTaO2F2-Lent_250°C.xrdml
! Initial format:  58
! WAVE (A):      1.54060     1.54060     1.00000
! REM : data have been multiplied by     1.0000
! X_data : 2 Theta (deg.)                                                                                                                                                                                                                                                  
! Y_data : Intensity (arb. units)                                                                                                                                                                                                                                          
!     X         Y
!--------------------------------------------------------------------------------
    10.0116     6413.00000
    10.0247     6471.00000
    10.0379     6617.00000
    10.0510     6377.00000
    10.0641     6316.00000
    10.0772     6470.00000
    10.0904     6241.00000
    10.1035     6298.00000
    10.1166     6346.00000
    10.1298     6282.00000
    10.1429     6249.00000
    10.1560     6353.00000
    10.1692     6450.00000
    10.1823     6165.00000
    10.1954     6289.00000
    10.2086     6164.00000
    10.2217     6219.00000
    10.2348     6219.00000
    10.2479     6261.00000
    10.2611     6372.00000
    10.2742     6244.00000
    10.2873     6330.00000
    10.3005     6192.00000
    10.3136     6163.00000
    10.3267     6437.00000
    10.3399     6322.00000
    10.3530     6185.00000
    10.3661     6170.00000
    10.3792     6177.00000
    10.3924     6369.00000
    10.4055     6161.00000
    10.4186     6143.00000
    10.4318     6168.00000
    10.4449     6240.00000
    10.4580     6302.00000
    10.4712     6189.00000
    10.4843     6225.00000
    10.4974     6103.00000
    10.5105     6206.00000
    10.5237     6051.00000
    10.5368     6115.00000
    10.5499     6164.00000
    10.5631     6082.00000
    10.5762     6094.00000
    10.5893     6301.00000
    10.6025     6177.00000
    10.6156     6201.00000
    10.6287     6088.00000
    10.6418     5977.00000
    10.6550     6081.00000
    10.6681     6143.00000
    10.6812     6176.00000
    10.6944     6144.00000
    10.7075     6190.00000
    10.7206     6241.00000
    10.7338     6366.00000
    10.7469     6271.00000
    10.7600     6163.00000
    10.7732     6329.00000
    10.7863     6328.00000
    10.7994     6345.00000
    10.8125     6269.00000
    10.8257     6530.00000
    10.8388     6442.00000
    10.8519     6455.00000
    10.8651     6578.00000
    10.8782     6500.00000
    10.8913     6620.00000
    10.9045     6800.00000
    10.9176     6738.00000
    10.9307     6986.00000
    10.9438     7010.00000
    10.9570     7569.00000
    10.9701     7879.00000
    10.9832     8421.00000
    10.9964     9457.00000
    11.0095    10557.00000
    11.0226    12106.00000
    11.0358    15407.00000
    11.0489    19987.00000
    11.0620    24862.00000
    11.0751    31314.00000
    11.0883    40797.00000
    11.1014    47829.00000
    11.1145    50713.00000
    11.1277    48007.00000
    11.1408    41299.00000
    11.1539    34684.00000
    11.1671    27954.00000
    11.1802    21207.00000
    11.1933    16108.00000
    11.2065    11828.00000
    11.2196     9527.00000
    11.2327     8265.00000
    11.2458     7455.00000
    11.2590     7092.00000
    11.2721     6887.00000
    11.2852     6608.00000
    11.2984     6444.00000
    11.3115     6151.00000
    11.3246     6325.00000
    11.3378     6194.00000
    11.3509     6153.00000
    11.3640     5999.00000
    11.3771     6054.00000
    11.3903     6101.00000
    11.4034     6074.00000
    11.4165     6072.00000
    11.4297     6088.00000
    11.4428     5967.00000
    11.4559     5997.00000
    11.4691     6078.00000
    11.4822     6118.00000
    11.4953     5968.00000
    11.5084     5821.00000
    11.5216     5947.00000
    11.5347     5865.00000
    11.5478     5868.00000
    11.5610     5917.00000
    11.5741     5764.00000
    11.5872     5881.00000
    11.6004     5839.00000
    11.6135     5842.00000
    11.6266     5942.00000
    11.6398     5871.00000
    11.6529     5744.00000
    11.6660     5882.00000
    11.6791     5848.00000
    11.6923     5782.00000
    11.7054     5932.00000
    11.7185     5798.00000
    11.7317     5742.00000
    11.7448     5861.00000
    11.7579     5894.00000
    11.7711     5794.00000
    11.7842     5691.00000
    11.7973     5815.00000
    11.8104     5852.00000
    11.8236     5902.00000
    11.8367     5748.00000
    11.8498     5742.00000
    11.8630     5704.00000
    11.8761     5765.00000
    11.8892     5677.00000
    11.9024     5673.00000
    11.9155     5778.00000
    11.9286     5882.00000
    11.9417     5697.00000
    11.9549     5560.00000
    11.9680     5634.00000
    11.9811     5568.00000
    11.9943     5685.00000
    12.0074     5672.00000
    12.0205     5680.00000
    12.0337     5826.00000
    12.0468     5699.00000
    12.0599     5577.00000
    12.0731     5604.00000
    12.0862     5661.00000
    12.0993     5672.00000
    12.1124     5595.00000
    12.1256     5575.00000
    12.1387     5742.00000
    12.1518     5645.00000
    12.1650     5559.00000
    12.1781     5649.00000
    12.1912     5735.00000
    12.2044     5660.00000
    12.2175     5627.00000
    12.2306     5651.00000
    12.2437     5513.00000
    12.2569     5609.00000
    12.2700     5560.00000
    12.2831     5490.00000
    12.2963     5729.00000
    12.3094     5559.00000
    12.3225     5636.00000
    12.3357     5580.00000
    12.3488     5688.00000
    12.3619     5485.00000
    12.3750     5416.00000
    12.3882     5400.00000
    12.4013     5585.00000
    12.4144     5508.00000
    12.4276     5539.00000
    12.4407     5467.00000
    12.4538     5493.00000
    12.4670     5557.00000
    12.4801     5694.00000
    12.4932     5476.00000
    12.5063     5521.00000
    12.5195     5520.00000
    12.5326     5450.00000
    12.5457     5566.00000
    12.5589     5458.00000
    12.5720     5361.00000
    12.5851     5639.00000
    12.5983     5502.00000
    12.6114     5484.00000
    12.6245     5412.00000
    12.6377     5340.00000
    12.6508     5607.00000
    12.6639     5473.00000
    12.6770     5467.00000
    12.6902     5420.00000
    12.7033     5418.00000
    12.7164     5435.00000
    12.7296     5500.00000
    12.7427     5425.00000
    12.7558     5450.00000
    12.7690     5297.00000
    12.7821     5345.00000
    12.7952     5438.00000
    12.8083     5475.00000
    12.8215     5406.00000
    12.8346     5325.00000
    12.8477     5562.00000
    12.8609     5475.00000
    12.8740     5373.00000
    12.8871     5477.00000
    12.9003     5295.00000
    12.9134     5368.00000
    12.9265     5266.00000
    12.9396     5353.00000
    12.9528     5389.00000
    12.9659     5249.00000
    12.9790     5426.00000
    12.9922     5440.00000
    13.0053     5332.00000
    13.0184     5324.00000
    13.0316     5317.00000
    13.0447     5442.00000
    13.0578     5260.00000
    13.0710     5324.00000
    13.0841     5232.00000
    13.0972     5402.00000
    13.1103     5350.00000
    13.1235     5350.00000
    13.1366     5412.00000
    13.1497     5273.00000
    13.1629     5344.00000
    13.1760     5236.00000
    13.1891     5331.00000
    13.2023     5214.00000
    13.2154     5334.00000
    13.2285     5343.00000
    13.2416     5246.00000
    13.2548     5239.00000
    13.2679     5262.00000
    13.2810     5302.00000
    13.2942     5279.00000
    13.3073     5154.00000
    13.3204     5224.00000
    13.3336     5242.00000
    13.3467     5376.00000
    13.3598     5337.00000
    13.3729     5295.00000
    13.3861     5278.00000
    13.3992     5086.00000
    13.4123     5171.00000
    13.4255     5320.00000
    13.4386     5176.00000
    13.4517     5260.00000
    13.4649     5236.00000
    13.4780     5096.00000
    13.4911     5251.00000
    13.5043     5157.00000
    13.5174     5298.00000
    13.5305     5334.00000
    13.5436     5142.00000
    13.5568     5255.00000
    13.5699     5240.00000
    13.5830     5233.00000
    13.5962     5299.00000
    13.6093     5245.00000
    13.6224     5205.00000
    13.6356     5224.00000
    13.6487     5098.00000
    13.6618     5273.00000
    13.6749     5112.00000
    13.6881     5201.00000
    13.7012     5189.00000
    13.7143     5057.00000
    13.7275     5101.00000
    13.7406     5049.00000
    13.7537     4990.00000
    13.7669     5084.00000
    13.7800     5153.00000
    13.7931     5002.00000
    13.8062     5080.00000
    13.8194     5101.00000
    13.8325     5248.00000
    13.8456     5107.00000
    13.8588     5102.00000
    13.8719     4978.00000
    13.8850     5127.00000
    13.8982     5087.00000
    13.9113     5073.00000
    13.9244     5046.00000
    13.9376     4958.00000
    13.9507     5099.00000
    13.9638     5023.00000
    13.9769     5107.00000
    13.9901     5040.00000
    14.0032     5029.00000
    14.0163     5166.00000
    14.0295     4951.00000
    14.0426     5214.00000
    14.0557     5132.00000
    14.0689     5015.00000
    14.0820     5080.00000
    14.0951     5165.00000
    14.1082     5007.00000
    14.1214     5136.00000
    14.1345     4930.00000
    14.1476     5001.00000
    14.1608     5103.00000
    14.1739     5011.00000
    14.1870     4928.00000
    14.2002     4906.00000
    14.2133     4972.00000
    14.2264     5095.00000
    14.2395     4979.00000
    14.2527     5041.00000
    14.2658     4933.00000
    14.2789     5032.00000
    14.2921     5076.00000
    14.3052     4918.00000
    14.3183     5021.00000
    14.3315     5011.00000
    14.3446     4994.00000
    14.3577     4949.00000
    14.3708     5113.00000
    14.3840     5027.00000
    14.3971     5030.00000
    14.4102     4982.00000
    14.4234     4883.00000
    14.4365     4983.00000
    14.4496     4834.00000
    14.4628     4957.00000
    14.4759     4988.00000
    14.4890     4906.00000
    14.5022     4868.00000
    14.5153     4943.00000
    14.5284     4974.00000
    14.5415     4894.00000
    14.5547     4892.00000
    14.5678     4985.00000
    14.5809     4968.00000
    14.5941     4895.00000
    14.6072     4894.00000
    14.6203     4906.00000
    14.6335     4910.00000
    14.6466     4798.00000
    14.6597     4940.00000
    14.6728     4895.00000
    14.6860     4862.00000
    14.6991     4922.00000
    14.7122     4892.00000
    14.7254     4779.00000
    14.7385     4784.00000
    14.7516     4907.00000
    14.7648     4858.00000
    14.7779     4962.00000
    14.7910     4987.00000
    14.8041     4903.00000
    14.8173     4986.00000
    14.8304     4896.00000
    14.8435     4967.00000
    14.8567     4868.00000
    14.8698     4895.00000
    14.8829     4714.00000
    14.8961     4892.00000
    14.9092     4856.00000
    14.9223     4858.00000
    14.9355     4856.00000
    14.9486     4850.00000
    14.9617     4872.00000
    14.9748     4977.00000
    14.9880     4923.00000
    15.0011     4869.00000
    15.0142     4776.00000
    15.0274     4752.00000
    15.0405     4876.00000
    15.0536     4825.00000
    15.0668     4903.00000
    15.0799     4858.00000
    15.0930     4742.00000
    15.1061     4775.00000
    15.1193     4862.00000
    15.1324     4768.00000
    15.1455     4857.00000
    15.1587     4835.00000
    15.1718     4826.00000
    15.1849     4756.00000
    15.1981     4901.00000
    15.2112     4783.00000
    15.2243     4874.00000
    15.2374     4823.00000
    15.2506     4675.00000
    15.2637     4687.00000
    15.2768     4670.00000
    15.2900     4677.00000
    15.3031     4611.00000
    15.3162     4780.00000
    15.3294     4668.00000
    15.3425     4849.00000
    15.3556     4692.00000
    15.3688     4822.00000
    15.3819     4690.00000
    15.3950     4649.00000
    15.4081     4737.00000
    15.4213     4685.00000
    15.4344     4638.00000
    15.4475     4730.00000
    15.4607     4743.00000
    15.4738     4645.00000
    15.4869     4737.00000
    15.5001     4666.00000
    15.5132     4653.00000
    15.5263     4727.00000
    15.5394     4805.00000
    15.5526     4658.00000
    15.5657     4713.00000
    15.5788     4752.00000
    15.5920     4766.00000
    15.6051     4722.00000
    15.6182     4754.00000
    15.6314     4511.00000
    15.6445     4603.00000
    15.6576     4841.00000
    15.6707     4664.00000
    15.6839     4675.00000
    15.6970     4817.00000
    15.7101     4781.00000
    15.7233     4716.00000
    15.7364     4788.00000
    15.7495     4711.00000
    15.7627     4844.00000
    15.7758     4779.00000
    15.7889     4803.00000
    15.8021     4673.00000
    15.8152     4582.00000
    15.8283     4793.00000
    15.8414     4687.00000
    15.8546     4608.00000
    15.8677     4613.00000
    15.8808     4570.00000
    15.8940     4796.00000
    15.9071     4531.00000
    15.9202     4609.00000
    15.9334     4656.00000
    15.9465     4652.00000
    15.9596     4630.00000
    15.9727     4752.00000
    15.9859     4684.00000
    15.9990     4592.00000
    16.0121     4534.00000
    16.0253     4686.00000
    16.0384     4773.00000
    16.0515     4644.00000
    16.0647     4733.00000
    16.0778     4812.00000
    16.0909     4691.00000
    16.1040     4695.00000
    16.1172     4691.00000
    16.1303     4666.00000
    16.1434     4710.00000
    16.1566     4773.00000
    16.1697     4709.00000
    16.1828     4800.00000
    16.1960     4649.00000
    16.2091     4753.00000
    16.2222     4756.00000
    16.2353     4780.00000
    16.2485     4850.00000
    16.2616     4792.00000
    16.2747     4865.00000
    16.2879     4704.00000
    16.3010     4813.00000
    16.3141     4848.00000
    16.3273     4791.00000
    16.3404     4699.00000
    16.3535     4791.00000
    16.3667     4575.00000
    16.3798     4675.00000
    16.3929     4733.00000
    16.4060     4834.00000
    16.4192     4729.00000
    16.4323     4825.00000
    16.4454     4670.00000
    16.4586     4697.00000
    16.4717     4788.00000
    16.4848     4689.00000
    16.4980     4562.00000
    16.5111     4722.00000
    16.5242     4601.00000
    16.5373     4520.00000
    16.5505     4604.00000
    16.5636     4587.00000
    16.5767     4677.00000
    16.5899     4584.00000
    16.6030     4575.00000
    16.6161     4492.00000
    16.6293     4530.00000
    16.6424     4665.00000
    16.6555     4594.00000
    16.6686     4557.00000
    16.6818     4611.00000
    16.6949     4625.00000
    16.7080     4537.00000
    16.7212     4508.00000
    16.7343     4538.00000
    16.7474     4597.00000
    16.7606     4592.00000
    16.7737     4563.00000
    16.7868     4574.00000
    16.8000     4465.00000
    16.8131     4585.00000
    16.8262     4523.00000
    16.8393     4576.00000
    16.8525     4512.00000
    16.8656     4530.00000
    16.8787     4535.00000
    16.8919     4453.00000
    16.9050     4480.00000
    16.9181     4529.00000
    16.9313     4520.00000
    16.9444     4566.00000
    16.9575     4519.00000
    16.9706     4463.00000
    16.9838     4475.00000
    16.9969     4542.00000
    17.0100     4423.00000
    17.0232     4454.00000
    17.0363     4471.00000
    17.0494     4423.00000
    17.0626     4331.00000
    17.0757     4537.00000
    17.0888     4439.00000
    17.1019     4525.00000
    17.1151     4525.00000
    17.1282     4615.00000
    17.1413     4592.00000
    17.1545     4487.00000
    17.1676     4513.00000
    17.1807     4453.00000
    17.1939     4521.00000
    17.2070     4518.00000
    17.2201     4693.00000
    17.2333     4476.00000
    17.2464     4613.00000
    17.2595     4589.00000
    17.2726     4542.00000
    17.2858     4570.00000
    17.2989     4497.00000
    17.3120     4636.00000
    17.3252     4434.00000
    17.3383     4489.00000
    17.3514     4488.00000
    17.3646     4455.00000
    17.3777     4290.00000
    17.3908     4372.00000
    17.4039     4393.00000
    17.4171     4408.00000
    17.4302     4529.00000
    17.4433     4424.00000
    17.4565     4393.00000
    17.4696     4422.00000
    17.4827     4529.00000
    17.4959     4361.00000
    17.5090     4438.00000
    17.5221     4379.00000
    17.5352     4379.00000
    17.5484     4381.00000
    17.5615     4392.00000
    17.5746     4310.00000
    17.5878     4390.00000
    17.6009     4377.00000
    17.6140     4420.00000
    17.6272     4457.00000
    17.6403     4549.00000
    17.6534     4475.00000
    17.6666     4322.00000
    17.6797     4539.00000
    17.6928     4607.00000
    17.7059     4633.00000
    17.7191     4709.00000
    17.7322     4694.00000
    17.7453     4664.00000
    17.7585     4693.00000
    17.7716     4564.00000
    17.7847     4459.00000
    17.7979     4373.00000
    17.8110     4461.00000
    17.8241     4542.00000
    17.8372     4454.00000
    17.8504     4246.00000
    17.8635     4370.00000
    17.8766     4298.00000
    17.8898     4343.00000
    17.9029     4332.00000
    17.9160     4380.00000
    17.9292     4451.00000
    17.9423     4364.00000
    17.9554     4293.00000
    17.9685     4243.00000
    17.9817     4191.00000
    17.9948     4307.00000
    18.0079     4307.00000
    18.0211     4268.00000
    18.0342     4230.00000
    18.0473     4384.00000
    18.0605     4229.00000
    18.0736     4317.00000
    18.0867     4283.00000
    18.0998     4206.00000
    18.1130     4188.00000
    18.1261     4176.00000
    18.1392     4208.00000
    18.1524     4290.00000
    18.1655     4297.00000
    18.1786     4251.00000
    18.1918     4308.00000
    18.2049     4233.00000
    18.2180     4239.00000
    18.2312     4379.00000
    18.2443     4267.00000
    18.2574     4275.00000
    18.2705     4226.00000
    18.2837     4232.00000
    18.2968     4212.00000
    18.3099     4299.00000
    18.3231     4355.00000
    18.3362     4200.00000
    18.3493     4174.00000
    18.3625     4129.00000
    18.3756     4220.00000
    18.3887     4179.00000
    18.4018     4263.00000
    18.4150     4154.00000
    18.4281     4192.00000
    18.4412     4150.00000
    18.4544     4207.00000
    18.4675     4057.00000
    18.4806     4145.00000
    18.4938     4352.00000
    18.5069     4198.00000
    18.5200     4239.00000
    18.5331     4161.00000
    18.5463     4207.00000
    18.5594     4304.00000
    18.5725     4117.00000
    18.5857     4210.00000
    18.5988     4128.00000
    18.6119     4268.00000
    18.6251     4312.00000
    18.6382     4212.00000
    18.6513     4206.00000
    18.6645     4307.00000
    18.6776     4024.00000
    18.6907     4339.00000
    18.7038     4163.00000
    18.7170     4180.00000
    18.7301     4120.00000
    18.7432     4243.00000
    18.7564     4213.00000
    18.7695     4225.00000
    18.7826     4086.00000
    18.7958     4183.00000
    18.8089     4148.00000
    18.8220     4169.00000
    18.8351     4195.00000
    18.8483     4185.00000
    18.8614     4271.00000
    18.8745     4197.00000
    18.8877     4240.00000
    18.9008     4143.00000
    18.9139     4323.00000
    18.9271     4179.00000
    18.9402     4246.00000
    18.9533     4243.00000
