! Initial file:   D:\ZAKARY_OUAIL\MA_THESE\Deuxième_année_de_thèse\DRX\Manips_DRX\1st_NaTaO2F2_XRK900\NaTaO2F2-Lent_260°C.xrdml
! Initial format:  58
! WAVE (A):      1.54060     1.54060     1.00000
! REM : data have been multiplied by     1.0000
! X_data : 2 Theta (deg.)                                                                                                                                                                                                                                                  
! Y_data : Intensity (arb. units)                                                                                                                                                                                                                                          
!     X         Y
!--------------------------------------------------------------------------------
    10.0116     6282.00000
    10.0247     6455.00000
    10.0379     6388.00000
    10.0510     6418.00000
    10.0641     6292.00000
    10.0772     6309.00000
    10.0904     6414.00000
    10.1035     6382.00000
    10.1166     6308.00000
    10.1298     6129.00000
    10.1429     6351.00000
    10.1560     6253.00000
    10.1692     6212.00000
    10.1823     6255.00000
    10.1954     6234.00000
    10.2086     6139.00000
    10.2217     6318.00000
    10.2348     6229.00000
    10.2479     6179.00000
    10.2611     6142.00000
    10.2742     6271.00000
    10.2873     6220.00000
    10.3005     6263.00000
    10.3136     6248.00000
    10.3267     6246.00000
    10.3399     6199.00000
    10.3530     6141.00000
    10.3661     6281.00000
    10.3792     6243.00000
    10.3924     6282.00000
    10.4055     6307.00000
    10.4186     6209.00000
    10.4318     6075.00000
    10.4449     6173.00000
    10.4580     6002.00000
    10.4712     6230.00000
    10.4843     6192.00000
    10.4974     6292.00000
    10.5105     6073.00000
    10.5237     6246.00000
    10.5368     6013.00000
    10.5499     6002.00000
    10.5631     6139.00000
    10.5762     6190.00000
    10.5893     5961.00000
    10.6025     5923.00000
    10.6156     5934.00000
    10.6287     6170.00000
    10.6418     6237.00000
    10.6550     6068.00000
    10.6681     6102.00000
    10.6812     6143.00000
    10.6944     6172.00000
    10.7075     6230.00000
    10.7206     6320.00000
    10.7338     6118.00000
    10.7469     6393.00000
    10.7600     6315.00000
    10.7732     6300.00000
    10.7863     6354.00000
    10.7994     6296.00000
    10.8125     6305.00000
    10.8257     6449.00000
    10.8388     6366.00000
    10.8519     6533.00000
    10.8651     6434.00000
    10.8782     6432.00000
    10.8913     6679.00000
    10.9045     6816.00000
    10.9176     6707.00000
    10.9307     6966.00000
    10.9438     7112.00000
    10.9570     7409.00000
    10.9701     7878.00000
    10.9832     8372.00000
    10.9964     9480.00000
    11.0095    10553.00000
    11.0226    12680.00000
    11.0358    15442.00000
    11.0489    20173.00000
    11.0620    25238.00000
    11.0751    32026.00000
    11.0883    41106.00000
    11.1014    48515.00000
    11.1145    49797.00000
    11.1277    47495.00000
    11.1408    42871.00000
    11.1539    34257.00000
    11.1671    26866.00000
    11.1802    21422.00000
    11.1933    15389.00000
    11.2065    11839.00000
    11.2196     9668.00000
    11.2327     8240.00000
    11.2458     7450.00000
    11.2590     6870.00000
    11.2721     6836.00000
    11.2852     6640.00000
    11.2984     6570.00000
    11.3115     6415.00000
    11.3246     6321.00000
    11.3378     5998.00000
    11.3509     6141.00000
    11.3640     5894.00000
    11.3771     6143.00000
    11.3903     6069.00000
    11.4034     6017.00000
    11.4165     5948.00000
    11.4297     6057.00000
    11.4428     5964.00000
    11.4559     5978.00000
    11.4691     5888.00000
    11.4822     5910.00000
    11.4953     5950.00000
    11.5084     5840.00000
    11.5216     5943.00000
    11.5347     5837.00000
    11.5478     6113.00000
    11.5610     5793.00000
    11.5741     5872.00000
    11.5872     5873.00000
    11.6004     5789.00000
    11.6135     5887.00000
    11.6266     5752.00000
    11.6398     5827.00000
    11.6529     5695.00000
    11.6660     5816.00000
    11.6791     5941.00000
    11.6923     5876.00000
    11.7054     5864.00000
    11.7185     5751.00000
    11.7317     5749.00000
    11.7448     5693.00000
    11.7579     5791.00000
    11.7711     5769.00000
    11.7842     5702.00000
    11.7973     5959.00000
    11.8104     5852.00000
    11.8236     5755.00000
    11.8367     5702.00000
    11.8498     5764.00000
    11.8630     5722.00000
    11.8761     5631.00000
    11.8892     5757.00000
    11.9024     5569.00000
    11.9155     5740.00000
    11.9286     5794.00000
    11.9417     5736.00000
    11.9549     5571.00000
    11.9680     5646.00000
    11.9811     5674.00000
    11.9943     5756.00000
    12.0074     5677.00000
    12.0205     5816.00000
    12.0337     5767.00000
    12.0468     5652.00000
    12.0599     5649.00000
    12.0731     5771.00000
    12.0862     5613.00000
    12.0993     5451.00000
    12.1124     5595.00000
    12.1256     5638.00000
    12.1387     5593.00000
    12.1518     5688.00000
    12.1650     5639.00000
    12.1781     5478.00000
    12.1912     5605.00000
    12.2044     5675.00000
    12.2175     5582.00000
    12.2306     5744.00000
    12.2437     5537.00000
    12.2569     5616.00000
    12.2700     5511.00000
    12.2831     5506.00000
    12.2963     5547.00000
    12.3094     5485.00000
    12.3225     5523.00000
    12.3357     5461.00000
    12.3488     5556.00000
    12.3619     5609.00000
    12.3750     5595.00000
    12.3882     5521.00000
    12.4013     5479.00000
    12.4144     5584.00000
    12.4276     5384.00000
    12.4407     5383.00000
    12.4538     5441.00000
    12.4670     5557.00000
    12.4801     5462.00000
    12.4932     5589.00000
    12.5063     5495.00000
    12.5195     5352.00000
    12.5326     5450.00000
    12.5457     5376.00000
    12.5589     5536.00000
    12.5720     5519.00000
    12.5851     5426.00000
    12.5983     5510.00000
    12.6114     5427.00000
    12.6245     5537.00000
    12.6377     5496.00000
    12.6508     5374.00000
    12.6639     5383.00000
    12.6770     5382.00000
    12.6902     5506.00000
    12.7033     5359.00000
    12.7164     5238.00000
    12.7296     5412.00000
    12.7427     5457.00000
    12.7558     5404.00000
    12.7690     5494.00000
    12.7821     5258.00000
    12.7952     5393.00000
    12.8083     5327.00000
    12.8215     5285.00000
    12.8346     5487.00000
    12.8477     5561.00000
    12.8609     5243.00000
    12.8740     5267.00000
    12.8871     5355.00000
    12.9003     5422.00000
    12.9134     5365.00000
    12.9265     5337.00000
    12.9396     5253.00000
    12.9528     5457.00000
    12.9659     5417.00000
    12.9790     5400.00000
    12.9922     5293.00000
    13.0053     5492.00000
    13.0184     5167.00000
    13.0316     5303.00000
    13.0447     5258.00000
    13.0578     5286.00000
    13.0710     5489.00000
    13.0841     5260.00000
    13.0972     5372.00000
    13.1103     5357.00000
    13.1235     5384.00000
    13.1366     5328.00000
    13.1497     5233.00000
    13.1629     5422.00000
    13.1760     5291.00000
    13.1891     5340.00000
    13.2023     5330.00000
    13.2154     5285.00000
    13.2285     5321.00000
    13.2416     5254.00000
    13.2548     5252.00000
    13.2679     5313.00000
    13.2810     5221.00000
    13.2942     5424.00000
    13.3073     5284.00000
    13.3204     5079.00000
    13.3336     5227.00000
    13.3467     5223.00000
    13.3598     5171.00000
    13.3729     5275.00000
    13.3861     5078.00000
    13.3992     5226.00000
    13.4123     5240.00000
    13.4255     5233.00000
    13.4386     5195.00000
    13.4517     5250.00000
    13.4649     5127.00000
    13.4780     5137.00000
    13.4911     5158.00000
    13.5043     5123.00000
    13.5174     5187.00000
    13.5305     5203.00000
    13.5436     5216.00000
    13.5568     5356.00000
    13.5699     5291.00000
    13.5830     5099.00000
    13.5962     5219.00000
    13.6093     5181.00000
    13.6224     5173.00000
    13.6356     5102.00000
    13.6487     5156.00000
    13.6618     5218.00000
    13.6749     5107.00000
    13.6881     5079.00000
    13.7012     4988.00000
    13.7143     5203.00000
    13.7275     5174.00000
    13.7406     5208.00000
    13.7537     5088.00000
    13.7669     5114.00000
    13.7800     5181.00000
    13.7931     5077.00000
    13.8062     5068.00000
    13.8194     5202.00000
    13.8325     5069.00000
    13.8456     5099.00000
    13.8588     5026.00000
    13.8719     5124.00000
    13.8850     4971.00000
    13.8982     4936.00000
    13.9113     5174.00000
    13.9244     5129.00000
    13.9376     5017.00000
    13.9507     5182.00000
    13.9638     5052.00000
    13.9769     4900.00000
    13.9901     5035.00000
    14.0032     5120.00000
    14.0163     5173.00000
    14.0295     5066.00000
    14.0426     5076.00000
    14.0557     5065.00000
    14.0689     4963.00000
    14.0820     4921.00000
    14.0951     5021.00000
    14.1082     5031.00000
    14.1214     5072.00000
    14.1345     4947.00000
    14.1476     5051.00000
    14.1608     4968.00000
    14.1739     5046.00000
    14.1870     4998.00000
    14.2002     5018.00000
    14.2133     4936.00000
    14.2264     4910.00000
    14.2395     4890.00000
    14.2527     4880.00000
    14.2658     4855.00000
    14.2789     4985.00000
    14.2921     4936.00000
    14.3052     4857.00000
    14.3183     5003.00000
    14.3315     4923.00000
    14.3446     5042.00000
    14.3577     4804.00000
    14.3708     4928.00000
    14.3840     4796.00000
    14.3971     5127.00000
    14.4102     4868.00000
    14.4234     4894.00000
    14.4365     4971.00000
    14.4496     4918.00000
    14.4628     4897.00000
    14.4759     4835.00000
    14.4890     4955.00000
    14.5022     5049.00000
    14.5153     4851.00000
    14.5284     4970.00000
    14.5415     4823.00000
    14.5547     4880.00000
    14.5678     4860.00000
    14.5809     4736.00000
    14.5941     4830.00000
    14.6072     4942.00000
    14.6203     4899.00000
    14.6335     4872.00000
    14.6466     4945.00000
    14.6597     4870.00000
    14.6728     4914.00000
    14.6860     4865.00000
    14.6991     4862.00000
    14.7122     4958.00000
    14.7254     4896.00000
    14.7385     4878.00000
    14.7516     4770.00000
    14.7648     4882.00000
    14.7779     4802.00000
    14.7910     4872.00000
    14.8041     4855.00000
    14.8173     4851.00000
    14.8304     4916.00000
    14.8435     4948.00000
    14.8567     4957.00000
    14.8698     4795.00000
    14.8829     4893.00000
    14.8961     4760.00000
    14.9092     4859.00000
    14.9223     4854.00000
    14.9355     4667.00000
    14.9486     4680.00000
    14.9617     4871.00000
    14.9748     4820.00000
    14.9880     4907.00000
    15.0011     4928.00000
    15.0142     4814.00000
    15.0274     4835.00000
    15.0405     4817.00000
    15.0536     4786.00000
    15.0668     4818.00000
    15.0799     4810.00000
    15.0930     4780.00000
    15.1061     4827.00000
    15.1193     4794.00000
    15.1324     4742.00000
    15.1455     4788.00000
    15.1587     4784.00000
    15.1718     4824.00000
    15.1849     4798.00000
    15.1981     4721.00000
    15.2112     4809.00000
    15.2243     4776.00000
    15.2374     4922.00000
    15.2506     4709.00000
    15.2637     4731.00000
    15.2768     4694.00000
    15.2900     4717.00000
    15.3031     4763.00000
    15.3162     4761.00000
    15.3294     4705.00000
    15.3425     4643.00000
    15.3556     4765.00000
    15.3688     4699.00000
    15.3819     4576.00000
    15.3950     4657.00000
    15.4081     4693.00000
    15.4213     4669.00000
    15.4344     4645.00000
    15.4475     4669.00000
    15.4607     4593.00000
    15.4738     4703.00000
    15.4869     4763.00000
    15.5001     4752.00000
    15.5132     4635.00000
    15.5263     4668.00000
    15.5394     4743.00000
    15.5526     4588.00000
    15.5657     4733.00000
    15.5788     4721.00000
    15.5920     4778.00000
    15.6051     4719.00000
    15.6182     4689.00000
    15.6314     4622.00000
    15.6445     4661.00000
    15.6576     4727.00000
    15.6707     4788.00000
    15.6839     4593.00000
    15.6970     4571.00000
    15.7101     4683.00000
    15.7233     4673.00000
    15.7364     4599.00000
    15.7495     4567.00000
    15.7627     4641.00000
    15.7758     4747.00000
    15.7889     4637.00000
    15.8021     4701.00000
    15.8152     4610.00000
    15.8283     4678.00000
    15.8414     4634.00000
    15.8546     4601.00000
    15.8677     4436.00000
    15.8808     4570.00000
    15.8940     4608.00000
    15.9071     4629.00000
    15.9202     4532.00000
    15.9334     4636.00000
    15.9465     4735.00000
    15.9596     4690.00000
    15.9727     4534.00000
    15.9859     4612.00000
    15.9990     4580.00000
    16.0121     4632.00000
    16.0253     4698.00000
    16.0384     4677.00000
    16.0515     4688.00000
    16.0647     4620.00000
    16.0778     4751.00000
    16.0909     4778.00000
    16.1040     4742.00000
    16.1172     4673.00000
    16.1303     4893.00000
    16.1434     4801.00000
    16.1566     4715.00000
    16.1697     4776.00000
    16.1828     4841.00000
    16.1960     4599.00000
    16.2091     4745.00000
    16.2222     4728.00000
    16.2353     4659.00000
    16.2485     4804.00000
    16.2616     4659.00000
    16.2747     4777.00000
    16.2879     4834.00000
    16.3010     4608.00000
    16.3141     4684.00000
    16.3273     4793.00000
    16.3404     4742.00000
    16.3535     4779.00000
    16.3667     4674.00000
    16.3798     4763.00000
    16.3929     4759.00000
    16.4060     4616.00000
    16.4192     4625.00000
    16.4323     4751.00000
    16.4454     4561.00000
    16.4586     4643.00000
    16.4717     4661.00000
    16.4848     4684.00000
    16.4980     4692.00000
    16.5111     4631.00000
    16.5242     4552.00000
    16.5373     4568.00000
    16.5505     4661.00000
    16.5636     4612.00000
    16.5767     4471.00000
    16.5899     4590.00000
    16.6030     4460.00000
    16.6161     4604.00000
    16.6293     4665.00000
    16.6424     4490.00000
    16.6555     4488.00000
    16.6686     4689.00000
    16.6818     4542.00000
    16.6949     4477.00000
    16.7080     4568.00000
    16.7212     4538.00000
    16.7343     4556.00000
    16.7474     4507.00000
    16.7606     4669.00000
    16.7737     4509.00000
    16.7868     4487.00000
    16.8000     4337.00000
    16.8131     4564.00000
    16.8262     4572.00000
    16.8393     4453.00000
    16.8525     4515.00000
    16.8656     4406.00000
    16.8787     4467.00000
    16.8919     4498.00000
    16.9050     4443.00000
    16.9181     4451.00000
    16.9313     4465.00000
    16.9444     4467.00000
    16.9575     4529.00000
    16.9706     4440.00000
    16.9838     4393.00000
    16.9969     4406.00000
    17.0100     4422.00000
    17.0232     4401.00000
    17.0363     4531.00000
    17.0494     4493.00000
    17.0626     4585.00000
    17.0757     4473.00000
    17.0888     4424.00000
    17.1019     4569.00000
    17.1151     4522.00000
    17.1282     4474.00000
    17.1413     4450.00000
    17.1545     4629.00000
    17.1676     4493.00000
    17.1807     4505.00000
    17.1939     4552.00000
    17.2070     4536.00000
    17.2201     4587.00000
    17.2333     4496.00000
    17.2464     4608.00000
    17.2595     4518.00000
    17.2726     4470.00000
    17.2858     4548.00000
    17.2989     4340.00000
    17.3120     4390.00000
    17.3252     4360.00000
    17.3383     4550.00000
    17.3514     4360.00000
    17.3646     4458.00000
    17.3777     4455.00000
    17.3908     4259.00000
    17.4039     4442.00000
    17.4171     4354.00000
    17.4302     4454.00000
    17.4433     4481.00000
    17.4565     4309.00000
    17.4696     4360.00000
    17.4827     4281.00000
    17.4959     4334.00000
    17.5090     4358.00000
    17.5221     4382.00000
    17.5352     4340.00000
    17.5484     4220.00000
    17.5615     4328.00000
    17.5746     4510.00000
    17.5878     4502.00000
    17.6009     4300.00000
    17.6140     4316.00000
    17.6272     4410.00000
    17.6403     4460.00000
    17.6534     4434.00000
    17.6666     4356.00000
    17.6797     4390.00000
    17.6928     4558.00000
    17.7059     4566.00000
    17.7191     4718.00000
    17.7322     4669.00000
    17.7453     4586.00000
    17.7585     4619.00000
    17.7716     4610.00000
    17.7847     4514.00000
    17.7979     4453.00000
    17.8110     4351.00000
    17.8241     4349.00000
    17.8372     4314.00000
    17.8504     4313.00000
    17.8635     4293.00000
    17.8766     4144.00000
    17.8898     4236.00000
    17.9029     4301.00000
    17.9160     4353.00000
    17.9292     4246.00000
    17.9423     4380.00000
    17.9554     4278.00000
    17.9685     4288.00000
    17.9817     4420.00000
    17.9948     4280.00000
    18.0079     4388.00000
    18.0211     4250.00000
    18.0342     4261.00000
    18.0473     4198.00000
    18.0605     4143.00000
    18.0736     4197.00000
    18.0867     4150.00000
    18.0998     4203.00000
    18.1130     4207.00000
    18.1261     4240.00000
    18.1392     4192.00000
    18.1524     4316.00000
    18.1655     4216.00000
    18.1786     4392.00000
    18.1918     4291.00000
    18.2049     4164.00000
    18.2180     4195.00000
    18.2312     4145.00000
    18.2443     4270.00000
    18.2574     4220.00000
    18.2705     4289.00000
    18.2837     4199.00000
    18.2968     4203.00000
    18.3099     4198.00000
    18.3231     4283.00000
    18.3362     4209.00000
    18.3493     4336.00000
    18.3625     4189.00000
    18.3756     4087.00000
    18.3887     4196.00000
    18.4018     4196.00000
    18.4150     4157.00000
    18.4281     4136.00000
    18.4412     4168.00000
    18.4544     4171.00000
    18.4675     4293.00000
    18.4806     4249.00000
    18.4938     4148.00000
    18.5069     4230.00000
    18.5200     4196.00000
    18.5331     4166.00000
    18.5463     4039.00000
    18.5594     4214.00000
    18.5725     4208.00000
    18.5857     4342.00000
    18.5988     4331.00000
    18.6119     4297.00000
    18.6251     4378.00000
    18.6382     4221.00000
    18.6513     4186.00000
    18.6645     4206.00000
    18.6776     4201.00000
    18.6907     4165.00000
    18.7038     4224.00000
    18.7170     4160.00000
    18.7301     4247.00000
    18.7432     4154.00000
    18.7564     4188.00000
    18.7695     4148.00000
    18.7826     4120.00000
    18.7958     4196.00000
    18.8089     4205.00000
    18.8220     3985.00000
    18.8351     3929.00000
    18.8483     4148.00000
    18.8614     4097.00000
    18.8745     4056.00000
    18.8877     4090.00000
    18.9008     4045.00000
    18.9139     4111.00000
    18.9271     4111.00000
    18.9402     4242.00000
    18.9533     4330.00000
