! Initial file:   D:\ZAKARY_OUAIL\MA_THESE\Deuxième_année_de_thèse\DRX\Manips_DRX\1st_NaTaO2F2_XRK900\NaTaO2F2-Lent_270°C.xrdml
! Initial format:  58
! WAVE (A):      1.54060     1.54060     1.00000
! REM : data have been multiplied by     1.0000
! X_data : 2 Theta (deg.)                                                                                                                                                                                                                                                  
! Y_data : Intensity (arb. units)                                                                                                                                                                                                                                          
!     X         Y
!--------------------------------------------------------------------------------
    10.0116     6289.00000
    10.0247     6441.00000
    10.0379     6385.00000
    10.0510     6455.00000
    10.0641     6412.00000
    10.0772     6347.00000
    10.0904     6325.00000
    10.1035     6237.00000
    10.1166     6267.00000
    10.1298     6407.00000
    10.1429     6257.00000
    10.1560     6279.00000
    10.1692     6225.00000
    10.1823     6105.00000
    10.1954     6129.00000
    10.2086     6225.00000
    10.2217     6300.00000
    10.2348     6227.00000
    10.2479     6277.00000
    10.2611     6232.00000
    10.2742     6241.00000
    10.2873     6237.00000
    10.3005     6206.00000
    10.3136     6140.00000
    10.3267     6210.00000
    10.3399     5945.00000
    10.3530     6174.00000
    10.3661     6244.00000
    10.3792     6151.00000
    10.3924     6090.00000
    10.4055     6018.00000
    10.4186     6275.00000
    10.4318     6192.00000
    10.4449     6128.00000
    10.4580     6186.00000
    10.4712     6171.00000
    10.4843     6079.00000
    10.4974     6118.00000
    10.5105     6026.00000
    10.5237     6116.00000
    10.5368     6086.00000
    10.5499     6088.00000
    10.5631     6061.00000
    10.5762     6085.00000
    10.5893     6051.00000
    10.6025     5998.00000
    10.6156     6095.00000
    10.6287     6083.00000
    10.6418     6131.00000
    10.6550     6008.00000
    10.6681     6048.00000
    10.6812     6068.00000
    10.6944     6068.00000
    10.7075     6197.00000
    10.7206     6246.00000
    10.7338     6262.00000
    10.7469     6303.00000
    10.7600     6358.00000
    10.7732     6142.00000
    10.7863     6160.00000
    10.7994     6330.00000
    10.8125     6489.00000
    10.8257     6326.00000
    10.8388     6377.00000
    10.8519     6339.00000
    10.8651     6447.00000
    10.8782     6379.00000
    10.8913     6625.00000
    10.9045     6642.00000
    10.9176     6946.00000
    10.9307     6841.00000
    10.9438     7085.00000
    10.9570     7355.00000
    10.9701     8015.00000
    10.9832     8642.00000
    10.9964     9477.00000
    11.0095    10900.00000
    11.0226    12623.00000
    11.0358    15786.00000
    11.0489    20412.00000
    11.0620    25467.00000
    11.0751    32667.00000
    11.0883    41388.00000
    11.1014    47605.00000
    11.1145    49847.00000
    11.1277    47678.00000
    11.1408    40828.00000
    11.1539    32911.00000
    11.1671    25546.00000
    11.1802    19692.00000
    11.1933    14373.00000
    11.2065    10918.00000
    11.2196     8868.00000
    11.2327     7763.00000
    11.2458     7108.00000
    11.2590     6784.00000
    11.2721     6716.00000
    11.2852     6380.00000
    11.2984     6223.00000
    11.3115     6369.00000
    11.3246     6340.00000
    11.3378     6160.00000
    11.3509     6079.00000
    11.3640     5935.00000
    11.3771     5981.00000
    11.3903     5889.00000
    11.4034     6020.00000
    11.4165     5868.00000
    11.4297     5989.00000
    11.4428     5780.00000
    11.4559     5905.00000
    11.4691     5857.00000
    11.4822     5910.00000
    11.4953     5895.00000
    11.5084     5863.00000
    11.5216     5924.00000
    11.5347     5756.00000
    11.5478     5719.00000
    11.5610     5762.00000
    11.5741     5892.00000
    11.5872     5754.00000
    11.6004     5741.00000
    11.6135     5833.00000
    11.6266     5833.00000
    11.6398     5638.00000
    11.6529     5853.00000
    11.6660     5715.00000
    11.6791     5788.00000
    11.6923     5864.00000
    11.7054     5778.00000
    11.7185     5659.00000
    11.7317     5634.00000
    11.7448     5739.00000
    11.7579     5807.00000
    11.7711     5752.00000
    11.7842     5720.00000
    11.7973     5729.00000
    11.8104     5605.00000
    11.8236     5649.00000
    11.8367     5713.00000
    11.8498     5622.00000
    11.8630     5640.00000
    11.8761     5723.00000
    11.8892     5674.00000
    11.9024     5750.00000
    11.9155     5584.00000
    11.9286     5709.00000
    11.9417     5668.00000
    11.9549     5463.00000
    11.9680     5566.00000
    11.9811     5673.00000
    11.9943     5400.00000
    12.0074     5656.00000
    12.0205     5591.00000
    12.0337     5643.00000
    12.0468     5779.00000
    12.0599     5483.00000
    12.0731     5626.00000
    12.0862     5675.00000
    12.0993     5640.00000
    12.1124     5480.00000
    12.1256     5555.00000
    12.1387     5503.00000
    12.1518     5512.00000
    12.1650     5496.00000
    12.1781     5551.00000
    12.1912     5665.00000
    12.2044     5622.00000
    12.2175     5671.00000
    12.2306     5510.00000
    12.2437     5598.00000
    12.2569     5637.00000
    12.2700     5581.00000
    12.2831     5502.00000
    12.2963     5470.00000
    12.3094     5528.00000
    12.3225     5503.00000
    12.3357     5535.00000
    12.3488     5704.00000
    12.3619     5620.00000
    12.3750     5508.00000
    12.3882     5440.00000
    12.4013     5552.00000
    12.4144     5327.00000
    12.4276     5445.00000
    12.4407     5355.00000
    12.4538     5466.00000
    12.4670     5528.00000
    12.4801     5474.00000
    12.4932     5515.00000
    12.5063     5580.00000
    12.5195     5386.00000
    12.5326     5402.00000
    12.5457     5336.00000
    12.5589     5418.00000
    12.5720     5324.00000
    12.5851     5482.00000
    12.5983     5412.00000
    12.6114     5428.00000
    12.6245     5294.00000
    12.6377     5331.00000
    12.6508     5379.00000
    12.6639     5550.00000
    12.6770     5398.00000
    12.6902     5455.00000
    12.7033     5437.00000
    12.7164     5228.00000
    12.7296     5395.00000
    12.7427     5474.00000
    12.7558     5361.00000
    12.7690     5405.00000
    12.7821     5331.00000
    12.7952     5453.00000
    12.8083     5227.00000
    12.8215     5414.00000
    12.8346     5244.00000
    12.8477     5317.00000
    12.8609     5230.00000
    12.8740     5232.00000
    12.8871     5432.00000
    12.9003     5239.00000
    12.9134     5151.00000
    12.9265     5285.00000
    12.9396     5285.00000
    12.9528     5263.00000
    12.9659     5230.00000
    12.9790     5227.00000
    12.9922     5201.00000
    13.0053     5296.00000
    13.0184     5221.00000
    13.0316     5234.00000
    13.0447     5156.00000
    13.0578     5260.00000
    13.0710     5389.00000
    13.0841     5060.00000
    13.0972     5249.00000
    13.1103     5176.00000
    13.1235     5276.00000
    13.1366     5282.00000
    13.1497     5296.00000
    13.1629     5225.00000
    13.1760     5241.00000
    13.1891     5215.00000
    13.2023     5338.00000
    13.2154     5362.00000
    13.2285     5367.00000
    13.2416     5117.00000
    13.2548     5200.00000
    13.2679     5176.00000
    13.2810     5271.00000
    13.2942     5198.00000
    13.3073     5198.00000
    13.3204     5269.00000
    13.3336     5222.00000
    13.3467     5202.00000
    13.3598     5230.00000
    13.3729     5203.00000
    13.3861     5128.00000
    13.3992     5148.00000
    13.4123     5154.00000
    13.4255     5188.00000
    13.4386     5241.00000
    13.4517     5160.00000
    13.4649     5064.00000
    13.4780     5120.00000
    13.4911     5165.00000
    13.5043     5097.00000
    13.5174     5417.00000
    13.5305     5029.00000
    13.5436     5071.00000
    13.5568     5247.00000
    13.5699     5173.00000
    13.5830     5057.00000
    13.5962     5047.00000
    13.6093     5212.00000
    13.6224     5192.00000
    13.6356     5189.00000
    13.6487     5223.00000
    13.6618     5081.00000
    13.6749     5020.00000
    13.6881     4967.00000
    13.7012     5103.00000
    13.7143     5101.00000
    13.7275     5199.00000
    13.7406     4889.00000
    13.7537     5078.00000
    13.7669     5224.00000
    13.7800     5141.00000
    13.7931     5079.00000
    13.8062     5192.00000
    13.8194     5009.00000
    13.8325     5094.00000
    13.8456     5067.00000
    13.8588     5055.00000
    13.8719     5046.00000
    13.8850     5022.00000
    13.8982     5012.00000
    13.9113     5063.00000
    13.9244     5104.00000
    13.9376     4930.00000
    13.9507     4977.00000
    13.9638     5168.00000
    13.9769     5017.00000
    13.9901     4948.00000
    14.0032     4971.00000
    14.0163     4947.00000
    14.0295     5017.00000
    14.0426     5108.00000
    14.0557     5028.00000
    14.0689     5061.00000
    14.0820     4985.00000
    14.0951     5037.00000
    14.1082     4952.00000
    14.1214     5088.00000
    14.1345     4855.00000
    14.1476     4854.00000
    14.1608     5022.00000
    14.1739     4934.00000
    14.1870     4969.00000
    14.2002     4973.00000
    14.2133     4967.00000
    14.2264     4993.00000
    14.2395     4987.00000
    14.2527     4842.00000
    14.2658     5079.00000
    14.2789     5033.00000
    14.2921     4914.00000
    14.3052     4910.00000
    14.3183     5029.00000
    14.3315     4971.00000
    14.3446     5003.00000
    14.3577     4965.00000
    14.3708     4940.00000
    14.3840     4973.00000
    14.3971     4923.00000
    14.4102     4787.00000
    14.4234     5106.00000
    14.4365     4909.00000
    14.4496     4922.00000
    14.4628     4918.00000
    14.4759     4906.00000
    14.4890     4847.00000
    14.5022     4857.00000
    14.5153     4879.00000
    14.5284     4962.00000
    14.5415     4907.00000
    14.5547     5020.00000
    14.5678     5049.00000
    14.5809     4866.00000
    14.5941     4931.00000
    14.6072     4873.00000
    14.6203     4913.00000
    14.6335     4929.00000
    14.6466     4805.00000
    14.6597     4865.00000
    14.6728     4867.00000
    14.6860     4777.00000
    14.6991     4803.00000
    14.7122     4815.00000
    14.7254     4705.00000
    14.7385     4717.00000
    14.7516     4766.00000
    14.7648     4825.00000
    14.7779     4847.00000
    14.7910     4813.00000
    14.8041     4849.00000
    14.8173     4816.00000
    14.8304     4883.00000
    14.8435     4904.00000
    14.8567     4808.00000
    14.8698     4802.00000
    14.8829     4727.00000
    14.8961     4832.00000
    14.9092     4889.00000
    14.9223     4873.00000
    14.9355     4767.00000
    14.9486     4732.00000
    14.9617     4703.00000
    14.9748     4781.00000
    14.9880     4821.00000
    15.0011     4768.00000
    15.0142     4807.00000
    15.0274     4824.00000
    15.0405     4830.00000
    15.0536     4726.00000
    15.0668     4780.00000
    15.0799     4821.00000
    15.0930     4812.00000
    15.1061     4672.00000
    15.1193     4761.00000
    15.1324     4725.00000
    15.1455     4756.00000
    15.1587     4666.00000
    15.1718     4684.00000
    15.1849     4747.00000
    15.1981     4731.00000
    15.2112     4907.00000
    15.2243     4680.00000
    15.2374     4882.00000
    15.2506     4671.00000
    15.2637     4757.00000
    15.2768     4719.00000
    15.2900     4774.00000
    15.3031     4710.00000
    15.3162     4729.00000
    15.3294     4760.00000
    15.3425     4658.00000
    15.3556     4664.00000
    15.3688     4728.00000
    15.3819     4663.00000
    15.3950     4603.00000
    15.4081     4822.00000
    15.4213     4704.00000
    15.4344     4660.00000
    15.4475     4705.00000
    15.4607     4639.00000
    15.4738     4717.00000
    15.4869     4696.00000
    15.5001     4777.00000
    15.5132     4695.00000
    15.5263     4723.00000
    15.5394     4631.00000
    15.5526     4760.00000
    15.5657     4635.00000
    15.5788     4702.00000
    15.5920     4719.00000
    15.6051     4722.00000
    15.6182     4713.00000
    15.6314     4694.00000
    15.6445     4704.00000
    15.6576     4655.00000
    15.6707     4654.00000
    15.6839     4713.00000
    15.6970     4629.00000
    15.7101     4603.00000
    15.7233     4714.00000
    15.7364     4675.00000
    15.7495     4676.00000
    15.7627     4713.00000
    15.7758     4681.00000
    15.7889     4680.00000
    15.8021     4750.00000
    15.8152     4516.00000
    15.8283     4746.00000
    15.8414     4644.00000
    15.8546     4735.00000
    15.8677     4679.00000
    15.8808     4597.00000
    15.8940     4692.00000
    15.9071     4732.00000
    15.9202     4617.00000
    15.9334     4489.00000
    15.9465     4484.00000
    15.9596     4561.00000
    15.9727     4660.00000
    15.9859     4636.00000
    15.9990     4480.00000
    16.0121     4604.00000
    16.0253     4704.00000
    16.0384     4571.00000
    16.0515     4733.00000
    16.0647     4672.00000
    16.0778     4623.00000
    16.0909     4728.00000
    16.1040     4705.00000
    16.1172     4617.00000
    16.1303     4711.00000
    16.1434     4816.00000
    16.1566     4886.00000
    16.1697     4750.00000
    16.1828     4717.00000
    16.1960     4688.00000
    16.2091     4826.00000
    16.2222     4704.00000
    16.2353     4847.00000
    16.2485     4726.00000
    16.2616     4736.00000
    16.2747     4717.00000
    16.2879     4712.00000
    16.3010     4754.00000
    16.3141     4782.00000
    16.3273     4712.00000
    16.3404     4777.00000
    16.3535     4778.00000
    16.3667     4638.00000
    16.3798     4796.00000
    16.3929     4829.00000
    16.4060     4706.00000
    16.4192     4705.00000
    16.4323     4563.00000
    16.4454     4569.00000
    16.4586     4706.00000
    16.4717     4697.00000
    16.4848     4563.00000
    16.4980     4693.00000
    16.5111     4638.00000
    16.5242     4609.00000
    16.5373     4532.00000
    16.5505     4642.00000
    16.5636     4519.00000
    16.5767     4428.00000
    16.5899     4608.00000
    16.6030     4533.00000
    16.6161     4540.00000
    16.6293     4488.00000
    16.6424     4499.00000
    16.6555     4546.00000
    16.6686     4639.00000
    16.6818     4498.00000
    16.6949     4514.00000
    16.7080     4535.00000
    16.7212     4442.00000
    16.7343     4517.00000
    16.7474     4463.00000
    16.7606     4446.00000
    16.7737     4474.00000
    16.7868     4417.00000
    16.8000     4482.00000
    16.8131     4486.00000
    16.8262     4513.00000
    16.8393     4512.00000
    16.8525     4445.00000
    16.8656     4533.00000
    16.8787     4495.00000
    16.8919     4557.00000
    16.9050     4547.00000
    16.9181     4475.00000
    16.9313     4522.00000
    16.9444     4430.00000
    16.9575     4334.00000
    16.9706     4325.00000
    16.9838     4496.00000
    16.9969     4403.00000
    17.0100     4376.00000
    17.0232     4534.00000
    17.0363     4535.00000
    17.0494     4404.00000
    17.0626     4478.00000
    17.0757     4494.00000
    17.0888     4409.00000
    17.1019     4398.00000
    17.1151     4500.00000
    17.1282     4416.00000
    17.1413     4528.00000
    17.1545     4566.00000
    17.1676     4530.00000
    17.1807     4429.00000
    17.1939     4598.00000
    17.2070     4547.00000
    17.2201     4553.00000
    17.2333     4639.00000
    17.2464     4418.00000
    17.2595     4597.00000
    17.2726     4478.00000
    17.2858     4441.00000
    17.2989     4410.00000
    17.3120     4471.00000
    17.3252     4409.00000
    17.3383     4431.00000
    17.3514     4361.00000
    17.3646     4364.00000
    17.3777     4378.00000
    17.3908     4342.00000
    17.4039     4395.00000
    17.4171     4319.00000
    17.4302     4401.00000
    17.4433     4460.00000
    17.4565     4428.00000
    17.4696     4364.00000
    17.4827     4305.00000
    17.4959     4452.00000
    17.5090     4381.00000
    17.5221     4287.00000
    17.5352     4354.00000
    17.5484     4280.00000
    17.5615     4520.00000
    17.5746     4466.00000
    17.5878     4352.00000
    17.6009     4395.00000
    17.6140     4304.00000
    17.6272     4210.00000
    17.6403     4352.00000
    17.6534     4295.00000
    17.6666     4359.00000
    17.6797     4507.00000
    17.6928     4439.00000
    17.7059     4588.00000
    17.7191     4767.00000
    17.7322     4464.00000
    17.7453     4688.00000
    17.7585     4504.00000
    17.7716     4490.00000
    17.7847     4416.00000
    17.7979     4369.00000
    17.8110     4293.00000
    17.8241     4349.00000
    17.8372     4380.00000
    17.8504     4355.00000
    17.8635     4367.00000
    17.8766     4406.00000
    17.8898     4193.00000
    17.9029     4363.00000
    17.9160     4165.00000
    17.9292     4221.00000
    17.9423     4279.00000
    17.9554     4306.00000
    17.9685     4220.00000
    17.9817     4279.00000
    17.9948     4424.00000
    18.0079     4352.00000
    18.0211     4294.00000
    18.0342     4251.00000
    18.0473     4143.00000
    18.0605     4271.00000
    18.0736     4328.00000
    18.0867     4228.00000
    18.0998     4199.00000
    18.1130     4079.00000
    18.1261     4229.00000
    18.1392     4235.00000
    18.1524     4100.00000
    18.1655     4150.00000
    18.1786     4267.00000
    18.1918     4183.00000
    18.2049     4196.00000
    18.2180     4236.00000
    18.2312     4185.00000
    18.2443     4098.00000
    18.2574     4289.00000
    18.2705     4147.00000
    18.2837     4171.00000
    18.2968     4188.00000
    18.3099     4102.00000
    18.3231     4294.00000
    18.3362     4208.00000
    18.3493     4269.00000
    18.3625     4237.00000
    18.3756     4212.00000
    18.3887     4025.00000
    18.4018     4184.00000
    18.4150     4270.00000
    18.4281     4283.00000
    18.4412     4088.00000
    18.4544     4183.00000
    18.4675     4260.00000
    18.4806     4205.00000
    18.4938     4243.00000
    18.5069     4137.00000
    18.5200     4234.00000
    18.5331     4201.00000
    18.5463     4162.00000
    18.5594     4231.00000
    18.5725     4295.00000
    18.5857     4182.00000
    18.5988     4092.00000
    18.6119     4082.00000
    18.6251     4312.00000
    18.6382     4202.00000
    18.6513     4303.00000
    18.6645     4272.00000
    18.6776     4230.00000
    18.6907     4105.00000
    18.7038     4181.00000
    18.7170     4236.00000
    18.7301     4098.00000
    18.7432     4069.00000
    18.7564     4071.00000
    18.7695     4067.00000
    18.7826     4078.00000
    18.7958     4137.00000
    18.8089     4064.00000
    18.8220     4138.00000
    18.8351     4136.00000
    18.8483     4151.00000
    18.8614     4257.00000
    18.8745     4156.00000
    18.8877     4200.00000
    18.9008     4181.00000
    18.9139     4167.00000
    18.9271     4197.00000
    18.9402     4231.00000
    18.9533     4361.00000
