! Initial file:   D:\ZAKARY_OUAIL\MA_THESE\Deuxième_année_de_thèse\DRX\Manips_DRX\1st_NaTaO2F2_XRK900\NaTaO2F2-Lent_280°C.xrdml
! Initial format:  58
! WAVE (A):      1.54060     1.54060     1.00000
! REM : data have been multiplied by     1.0000
! X_data : 2 Theta (deg.)                                                                                                                                                                                                                                                  
! Y_data : Intensity (arb. units)                                                                                                                                                                                                                                          
!     X         Y
!--------------------------------------------------------------------------------
    10.0116     6236.00000
    10.0247     6241.00000
    10.0379     6270.00000
    10.0510     6231.00000
    10.0641     6356.00000
    10.0772     6151.00000
    10.0904     6375.00000
    10.1035     6232.00000
    10.1166     6136.00000
    10.1298     6185.00000
    10.1429     6281.00000
    10.1560     6330.00000
    10.1692     6233.00000
    10.1823     6327.00000
    10.1954     6173.00000
    10.2086     6062.00000
    10.2217     6111.00000
    10.2348     6265.00000
    10.2479     6235.00000
    10.2611     6120.00000
    10.2742     6197.00000
    10.2873     6219.00000
    10.3005     6277.00000
    10.3136     6426.00000
    10.3267     6312.00000
    10.3399     6108.00000
    10.3530     6214.00000
    10.3661     6182.00000
    10.3792     6177.00000
    10.3924     6197.00000
    10.4055     6257.00000
    10.4186     6143.00000
    10.4318     6194.00000
    10.4449     6041.00000
    10.4580     5994.00000
    10.4712     6089.00000
    10.4843     6077.00000
    10.4974     6021.00000
    10.5105     6029.00000
    10.5237     6191.00000
    10.5368     6131.00000
    10.5499     6099.00000
    10.5631     6010.00000
    10.5762     6112.00000
    10.5893     6099.00000
    10.6025     5940.00000
    10.6156     6037.00000
    10.6287     6097.00000
    10.6418     6055.00000
    10.6550     6118.00000
    10.6681     6046.00000
    10.6812     6048.00000
    10.6944     6081.00000
    10.7075     5922.00000
    10.7206     5957.00000
    10.7338     5999.00000
    10.7469     6014.00000
    10.7600     6308.00000
    10.7732     6333.00000
    10.7863     6293.00000
    10.7994     6171.00000
    10.8125     6262.00000
    10.8257     6262.00000
    10.8388     6252.00000
    10.8519     6436.00000
    10.8651     6223.00000
    10.8782     6452.00000
    10.8913     6539.00000
    10.9045     6413.00000
    10.9176     6778.00000
    10.9307     6860.00000
    10.9438     7188.00000
    10.9570     7543.00000
    10.9701     7948.00000
    10.9832     8671.00000
    10.9964     9530.00000
    11.0095    10836.00000
    11.0226    12601.00000
    11.0358    16081.00000
    11.0489    20752.00000
    11.0620    25950.00000
    11.0751    33148.00000
    11.0883    40987.00000
    11.1014    46983.00000
    11.1145    48688.00000
    11.1277    46210.00000
    11.1408    40605.00000
    11.1539    33300.00000
    11.1671    25553.00000
    11.1802    19484.00000
    11.1933    14397.00000
    11.2065    10666.00000
    11.2196     8837.00000
    11.2327     7581.00000
    11.2458     7044.00000
    11.2590     6739.00000
    11.2721     6663.00000
    11.2852     6490.00000
    11.2984     6308.00000
    11.3115     6221.00000
    11.3246     6237.00000
    11.3378     6052.00000
    11.3509     6000.00000
    11.3640     6015.00000
    11.3771     5797.00000
    11.3903     6025.00000
    11.4034     5867.00000
    11.4165     5967.00000
    11.4297     5952.00000
    11.4428     5844.00000
    11.4559     5870.00000
    11.4691     5796.00000
    11.4822     5831.00000
    11.4953     5846.00000
    11.5084     5837.00000
    11.5216     5896.00000
    11.5347     5801.00000
    11.5478     5953.00000
    11.5610     5817.00000
    11.5741     5719.00000
    11.5872     5801.00000
    11.6004     5815.00000
    11.6135     5840.00000
    11.6266     5671.00000
    11.6398     5727.00000
    11.6529     5734.00000
    11.6660     5847.00000
    11.6791     5778.00000
    11.6923     5735.00000
    11.7054     5772.00000
    11.7185     5767.00000
    11.7317     5733.00000
    11.7448     5788.00000
    11.7579     5740.00000
    11.7711     5718.00000
    11.7842     5855.00000
    11.7973     5710.00000
    11.8104     5680.00000
    11.8236     5566.00000
    11.8367     5817.00000
    11.8498     5676.00000
    11.8630     5578.00000
    11.8761     5636.00000
    11.8892     5571.00000
    11.9024     5561.00000
    11.9155     5603.00000
    11.9286     5622.00000
    11.9417     5717.00000
    11.9549     5572.00000
    11.9680     5549.00000
    11.9811     5508.00000
    11.9943     5574.00000
    12.0074     5577.00000
    12.0205     5586.00000
    12.0337     5621.00000
    12.0468     5729.00000
    12.0599     5595.00000
    12.0731     5570.00000
    12.0862     5668.00000
    12.0993     5514.00000
    12.1124     5529.00000
    12.1256     5677.00000
    12.1387     5608.00000
    12.1518     5553.00000
    12.1650     5602.00000
    12.1781     5639.00000
    12.1912     5620.00000
    12.2044     5499.00000
    12.2175     5474.00000
    12.2306     5541.00000
    12.2437     5483.00000
    12.2569     5444.00000
    12.2700     5506.00000
    12.2831     5379.00000
    12.2963     5445.00000
    12.3094     5440.00000
    12.3225     5477.00000
    12.3357     5507.00000
    12.3488     5478.00000
    12.3619     5378.00000
    12.3750     5424.00000
    12.3882     5414.00000
    12.4013     5390.00000
    12.4144     5392.00000
    12.4276     5323.00000
    12.4407     5401.00000
    12.4538     5362.00000
    12.4670     5443.00000
    12.4801     5323.00000
    12.4932     5426.00000
    12.5063     5588.00000
    12.5195     5367.00000
    12.5326     5532.00000
    12.5457     5407.00000
    12.5589     5446.00000
    12.5720     5325.00000
    12.5851     5415.00000
    12.5983     5227.00000
    12.6114     5347.00000
    12.6245     5375.00000
    12.6377     5435.00000
    12.6508     5430.00000
    12.6639     5296.00000
    12.6770     5439.00000
    12.6902     5334.00000
    12.7033     5218.00000
    12.7164     5320.00000
    12.7296     5231.00000
    12.7427     5305.00000
    12.7558     5354.00000
    12.7690     5388.00000
    12.7821     5311.00000
    12.7952     5437.00000
    12.8083     5336.00000
    12.8215     5303.00000
    12.8346     5350.00000
    12.8477     5241.00000
    12.8609     5234.00000
    12.8740     5172.00000
    12.8871     5247.00000
    12.9003     5183.00000
    12.9134     5303.00000
    12.9265     5216.00000
    12.9396     5253.00000
    12.9528     5421.00000
    12.9659     5247.00000
    12.9790     5280.00000
    12.9922     5356.00000
    13.0053     5342.00000
    13.0184     5248.00000
    13.0316     5303.00000
    13.0447     5264.00000
    13.0578     5345.00000
    13.0710     5141.00000
    13.0841     5309.00000
    13.0972     5331.00000
    13.1103     5294.00000
    13.1235     5269.00000
    13.1366     5083.00000
    13.1497     5334.00000
    13.1629     5276.00000
    13.1760     5098.00000
    13.1891     5062.00000
    13.2023     5206.00000
    13.2154     5270.00000
    13.2285     5286.00000
    13.2416     5208.00000
    13.2548     5194.00000
    13.2679     5172.00000
    13.2810     5266.00000
    13.2942     5268.00000
    13.3073     5121.00000
    13.3204     5230.00000
    13.3336     5171.00000
    13.3467     5295.00000
    13.3598     5046.00000
    13.3729     5178.00000
    13.3861     4996.00000
    13.3992     5218.00000
    13.4123     5129.00000
    13.4255     5174.00000
    13.4386     5187.00000
    13.4517     5112.00000
    13.4649     5092.00000
    13.4780     5235.00000
    13.4911     5196.00000
    13.5043     5197.00000
    13.5174     5110.00000
    13.5305     5222.00000
    13.5436     5000.00000
    13.5568     5200.00000
    13.5699     5148.00000
    13.5830     5142.00000
    13.5962     5067.00000
    13.6093     5149.00000
    13.6224     5064.00000
    13.6356     5212.00000
    13.6487     5209.00000
    13.6618     5101.00000
    13.6749     5108.00000
    13.6881     5025.00000
    13.7012     5002.00000
    13.7143     5166.00000
    13.7275     4916.00000
    13.7406     4942.00000
    13.7537     4917.00000
    13.7669     5083.00000
    13.7800     5042.00000
    13.7931     5132.00000
    13.8062     5010.00000
    13.8194     4908.00000
    13.8325     5063.00000
    13.8456     5087.00000
    13.8588     5048.00000
    13.8719     5023.00000
    13.8850     5125.00000
    13.8982     5235.00000
    13.9113     5025.00000
    13.9244     4944.00000
    13.9376     4958.00000
    13.9507     5099.00000
    13.9638     5006.00000
    13.9769     5049.00000
    13.9901     5048.00000
    14.0032     5078.00000
    14.0163     4958.00000
    14.0295     5072.00000
    14.0426     4942.00000
    14.0557     5000.00000
    14.0689     4900.00000
    14.0820     4973.00000
    14.0951     5026.00000
    14.1082     5053.00000
    14.1214     4844.00000
    14.1345     5098.00000
    14.1476     5057.00000
    14.1608     4872.00000
    14.1739     5007.00000
    14.1870     4916.00000
    14.2002     4953.00000
    14.2133     4953.00000
    14.2264     4915.00000
    14.2395     4996.00000
    14.2527     4796.00000
    14.2658     4951.00000
    14.2789     4919.00000
    14.2921     4830.00000
    14.3052     5035.00000
    14.3183     5022.00000
    14.3315     4733.00000
    14.3446     4931.00000
    14.3577     4928.00000
    14.3708     4817.00000
    14.3840     4806.00000
    14.3971     4936.00000
    14.4102     4828.00000
    14.4234     4863.00000
    14.4365     4862.00000
    14.4496     4931.00000
    14.4628     4761.00000
    14.4759     4844.00000
    14.4890     4741.00000
    14.5022     4857.00000
    14.5153     4817.00000
    14.5284     4894.00000
    14.5415     4810.00000
    14.5547     4817.00000
    14.5678     4865.00000
    14.5809     4951.00000
    14.5941     4837.00000
    14.6072     4908.00000
    14.6203     4795.00000
    14.6335     4914.00000
    14.6466     4755.00000
    14.6597     4946.00000
    14.6728     4743.00000
    14.6860     4897.00000
    14.6991     4824.00000
    14.7122     4825.00000
    14.7254     4824.00000
    14.7385     4775.00000
    14.7516     4897.00000
    14.7648     4881.00000
    14.7779     4740.00000
    14.7910     4837.00000
    14.8041     4701.00000
    14.8173     4822.00000
    14.8304     4646.00000
    14.8435     4973.00000
    14.8567     4777.00000
    14.8698     4730.00000
    14.8829     4902.00000
    14.8961     4738.00000
    14.9092     4798.00000
    14.9223     4737.00000
    14.9355     4859.00000
    14.9486     4614.00000
    14.9617     4817.00000
    14.9748     4750.00000
    14.9880     4875.00000
    15.0011     4853.00000
    15.0142     4703.00000
    15.0274     4898.00000
    15.0405     4762.00000
    15.0536     4730.00000
    15.0668     4730.00000
    15.0799     4733.00000
    15.0930     4671.00000
    15.1061     4781.00000
    15.1193     4790.00000
    15.1324     4751.00000
    15.1455     4643.00000
    15.1587     4748.00000
    15.1718     4701.00000
    15.1849     4761.00000
    15.1981     4711.00000
    15.2112     4747.00000
    15.2243     4804.00000
    15.2374     4663.00000
    15.2506     4825.00000
    15.2637     4751.00000
    15.2768     4565.00000
    15.2900     4758.00000
    15.3031     4784.00000
    15.3162     4710.00000
    15.3294     4653.00000
    15.3425     4759.00000
    15.3556     4646.00000
    15.3688     4600.00000
    15.3819     4759.00000
    15.3950     4676.00000
    15.4081     4763.00000
    15.4213     4903.00000
    15.4344     4622.00000
    15.4475     4609.00000
    15.4607     4609.00000
    15.4738     4617.00000
    15.4869     4730.00000
    15.5001     4657.00000
    15.5132     4624.00000
    15.5263     4601.00000
    15.5394     4622.00000
    15.5526     4695.00000
    15.5657     4638.00000
    15.5788     4643.00000
    15.5920     4754.00000
    15.6051     4796.00000
    15.6182     4591.00000
    15.6314     4600.00000
    15.6445     4603.00000
    15.6576     4553.00000
    15.6707     4626.00000
    15.6839     4637.00000
    15.6970     4643.00000
    15.7101     4552.00000
    15.7233     4617.00000
    15.7364     4579.00000
    15.7495     4617.00000
    15.7627     4750.00000
    15.7758     4634.00000
    15.7889     4574.00000
    15.8021     4607.00000
    15.8152     4697.00000
    15.8283     4541.00000
    15.8414     4547.00000
    15.8546     4567.00000
    15.8677     4539.00000
    15.8808     4514.00000
    15.8940     4689.00000
    15.9071     4550.00000
    15.9202     4595.00000
    15.9334     4603.00000
    15.9465     4651.00000
    15.9596     4688.00000
    15.9727     4632.00000
    15.9859     4571.00000
    15.9990     4634.00000
    16.0121     4668.00000
    16.0253     4686.00000
    16.0384     4628.00000
    16.0515     4638.00000
    16.0647     4597.00000
    16.0778     4792.00000
    16.0909     4756.00000
    16.1040     4655.00000
    16.1172     4644.00000
    16.1303     4846.00000
    16.1434     4651.00000
    16.1566     4744.00000
    16.1697     4630.00000
    16.1828     4621.00000
    16.1960     4832.00000
    16.2091     4802.00000
    16.2222     4723.00000
    16.2353     4649.00000
    16.2485     4804.00000
    16.2616     4710.00000
    16.2747     4771.00000
    16.2879     4671.00000
    16.3010     4652.00000
    16.3141     4680.00000
    16.3273     4734.00000
    16.3404     4761.00000
    16.3535     4797.00000
    16.3667     4658.00000
    16.3798     4737.00000
    16.3929     4689.00000
    16.4060     4692.00000
    16.4192     4605.00000
    16.4323     4657.00000
    16.4454     4613.00000
    16.4586     4581.00000
    16.4717     4566.00000
    16.4848     4752.00000
    16.4980     4586.00000
    16.5111     4592.00000
    16.5242     4653.00000
    16.5373     4711.00000
    16.5505     4774.00000
    16.5636     4592.00000
    16.5767     4533.00000
    16.5899     4450.00000
    16.6030     4476.00000
    16.6161     4490.00000
    16.6293     4493.00000
    16.6424     4571.00000
    16.6555     4469.00000
    16.6686     4517.00000
    16.6818     4528.00000
    16.6949     4407.00000
    16.7080     4544.00000
    16.7212     4404.00000
    16.7343     4463.00000
    16.7474     4416.00000
    16.7606     4529.00000
    16.7737     4413.00000
    16.7868     4420.00000
    16.8000     4522.00000
    16.8131     4551.00000
    16.8262     4507.00000
    16.8393     4444.00000
    16.8525     4363.00000
    16.8656     4463.00000
    16.8787     4489.00000
    16.8919     4473.00000
    16.9050     4454.00000
    16.9181     4441.00000
    16.9313     4421.00000
    16.9444     4613.00000
    16.9575     4439.00000
    16.9706     4306.00000
    16.9838     4450.00000
    16.9969     4499.00000
    17.0100     4409.00000
    17.0232     4480.00000
    17.0363     4546.00000
    17.0494     4554.00000
    17.0626     4487.00000
    17.0757     4485.00000
    17.0888     4445.00000
    17.1019     4497.00000
    17.1151     4365.00000
    17.1282     4433.00000
    17.1413     4672.00000
    17.1545     4573.00000
    17.1676     4548.00000
    17.1807     4498.00000
    17.1939     4507.00000
    17.2070     4482.00000
    17.2201     4613.00000
    17.2333     4602.00000
    17.2464     4531.00000
    17.2595     4605.00000
    17.2726     4527.00000
    17.2858     4497.00000
    17.2989     4497.00000
    17.3120     4400.00000
    17.3252     4452.00000
    17.3383     4385.00000
    17.3514     4465.00000
    17.3646     4467.00000
    17.3777     4412.00000
    17.3908     4399.00000
    17.4039     4422.00000
    17.4171     4367.00000
    17.4302     4357.00000
    17.4433     4445.00000
    17.4565     4321.00000
    17.4696     4406.00000
    17.4827     4279.00000
    17.4959     4349.00000
    17.5090     4319.00000
    17.5221     4349.00000
    17.5352     4358.00000
    17.5484     4471.00000
    17.5615     4275.00000
    17.5746     4457.00000
    17.5878     4357.00000
    17.6009     4356.00000
    17.6140     4462.00000
    17.6272     4377.00000
    17.6403     4439.00000
    17.6534     4446.00000
    17.6666     4385.00000
    17.6797     4394.00000
    17.6928     4538.00000
    17.7059     4565.00000
    17.7191     4545.00000
    17.7322     4454.00000
    17.7453     4541.00000
    17.7585     4589.00000
    17.7716     4463.00000
    17.7847     4458.00000
    17.7979     4266.00000
    17.8110     4306.00000
    17.8241     4342.00000
    17.8372     4331.00000
    17.8504     4339.00000
    17.8635     4287.00000
    17.8766     4140.00000
    17.8898     4197.00000
    17.9029     4240.00000
    17.9160     4280.00000
    17.9292     4170.00000
    17.9423     4268.00000
    17.9554     4219.00000
    17.9685     4233.00000
    17.9817     4319.00000
    17.9948     4221.00000
    18.0079     4116.00000
    18.0211     4091.00000
    18.0342     4380.00000
    18.0473     4179.00000
    18.0605     4208.00000
    18.0736     4194.00000
    18.0867     4290.00000
    18.0998     4121.00000
    18.1130     4188.00000
    18.1261     4233.00000
    18.1392     4207.00000
    18.1524     4152.00000
    18.1655     4142.00000
    18.1786     4165.00000
    18.1918     4100.00000
    18.2049     4156.00000
    18.2180     4152.00000
    18.2312     4249.00000
    18.2443     4393.00000
    18.2574     4253.00000
    18.2705     4205.00000
    18.2837     4222.00000
    18.2968     4179.00000
    18.3099     4137.00000
    18.3231     4200.00000
    18.3362     4127.00000
    18.3493     4266.00000
    18.3625     4188.00000
    18.3756     4140.00000
    18.3887     4200.00000
    18.4018     4218.00000
    18.4150     4160.00000
    18.4281     4283.00000
    18.4412     4028.00000
    18.4544     4105.00000
    18.4675     4023.00000
    18.4806     4085.00000
    18.4938     4113.00000
    18.5069     4109.00000
    18.5200     4075.00000
    18.5331     4085.00000
    18.5463     4165.00000
    18.5594     4187.00000
    18.5725     4230.00000
    18.5857     4301.00000
    18.5988     4220.00000
    18.6119     4243.00000
    18.6251     4181.00000
    18.6382     4293.00000
    18.6513     4335.00000
    18.6645     4236.00000
    18.6776     4198.00000
    18.6907     4099.00000
    18.7038     4161.00000
    18.7170     4280.00000
    18.7301     4161.00000
    18.7432     4065.00000
    18.7564     4079.00000
    18.7695     4089.00000
    18.7826     4041.00000
    18.7958     4136.00000
    18.8089     4151.00000
    18.8220     4250.00000
    18.8351     4100.00000
    18.8483     4110.00000
    18.8614     4034.00000
    18.8745     3980.00000
    18.8877     4080.00000
    18.9008     4152.00000
    18.9139     4214.00000
    18.9271     4135.00000
    18.9402     4361.00000
    18.9533     4305.00000
