! Initial file:   D:\ZAKARY_OUAIL\MA_THESE\Deuxième_année_de_thèse\DRX\Manips_DRX\1st_NaTaO2F2_XRK900\NaTaO2F2-Lent_290°C.xrdml
! Initial format:  58
! WAVE (A):      1.54060     1.54060     1.00000
! REM : data have been multiplied by     1.0000
! X_data : 2 Theta (deg.)                                                                                                                                                                                                                                                  
! Y_data : Intensity (arb. units)                                                                                                                                                                                                                                          
!     X         Y
!--------------------------------------------------------------------------------
    10.0116     6293.00000
    10.0247     6540.00000
    10.0379     6425.00000
    10.0510     6237.00000
    10.0641     6274.00000
    10.0772     6248.00000
    10.0904     6277.00000
    10.1035     6233.00000
    10.1166     6179.00000
    10.1298     6382.00000
    10.1429     6251.00000
    10.1560     6073.00000
    10.1692     6231.00000
    10.1823     6180.00000
    10.1954     6324.00000
    10.2086     6231.00000
    10.2217     6269.00000
    10.2348     6236.00000
    10.2479     6267.00000
    10.2611     6026.00000
    10.2742     6108.00000
    10.2873     6235.00000
    10.3005     6223.00000
    10.3136     6224.00000
    10.3267     6008.00000
    10.3399     6217.00000
    10.3530     6046.00000
    10.3661     6190.00000
    10.3792     6090.00000
    10.3924     6155.00000
    10.4055     6284.00000
    10.4186     5986.00000
    10.4318     6082.00000
    10.4449     6173.00000
    10.4580     6060.00000
    10.4712     6170.00000
    10.4843     6114.00000
    10.4974     5943.00000
    10.5105     6060.00000
    10.5237     6078.00000
    10.5368     6027.00000
    10.5499     6001.00000
    10.5631     5976.00000
    10.5762     5954.00000
    10.5893     5959.00000
    10.6025     6001.00000
    10.6156     5816.00000
    10.6287     6130.00000
    10.6418     6235.00000
    10.6550     5983.00000
    10.6681     5978.00000
    10.6812     6078.00000
    10.6944     6001.00000
    10.7075     6097.00000
    10.7206     6234.00000
    10.7338     6067.00000
    10.7469     6115.00000
    10.7600     6187.00000
    10.7732     6128.00000
    10.7863     6242.00000
    10.7994     6369.00000
    10.8125     6182.00000
    10.8257     6284.00000
    10.8388     6262.00000
    10.8519     6257.00000
    10.8651     6418.00000
    10.8782     6523.00000
    10.8913     6515.00000
    10.9045     6483.00000
    10.9176     6692.00000
    10.9307     6753.00000
    10.9438     7068.00000
    10.9570     7512.00000
    10.9701     7932.00000
    10.9832     8618.00000
    10.9964     9564.00000
    11.0095    10923.00000
    11.0226    12716.00000
    11.0358    16219.00000
    11.0489    21048.00000
    11.0620    26724.00000
    11.0751    33718.00000
    11.0883    41188.00000
    11.1014    46327.00000
    11.1145    48490.00000
    11.1277    46163.00000
    11.1408    39741.00000
    11.1539    32597.00000
    11.1671    25876.00000
    11.1802    19330.00000
    11.1933    14505.00000
    11.2065    10938.00000
    11.2196     8940.00000
    11.2327     7558.00000
    11.2458     7109.00000
    11.2590     6930.00000
    11.2721     6477.00000
    11.2852     6407.00000
    11.2984     6373.00000
    11.3115     6347.00000
    11.3246     6168.00000
    11.3378     6029.00000
    11.3509     6082.00000
    11.3640     6054.00000
    11.3771     6077.00000
    11.3903     5975.00000
    11.4034     5890.00000
    11.4165     5783.00000
    11.4297     5900.00000
    11.4428     5856.00000
    11.4559     5739.00000
    11.4691     5822.00000
    11.4822     5794.00000
    11.4953     5860.00000
    11.5084     5923.00000
    11.5216     5785.00000
    11.5347     5752.00000
    11.5478     5611.00000
    11.5610     5857.00000
    11.5741     5907.00000
    11.5872     5735.00000
    11.6004     5760.00000
    11.6135     5668.00000
    11.6266     5713.00000
    11.6398     5766.00000
    11.6529     5707.00000
    11.6660     5685.00000
    11.6791     5771.00000
    11.6923     5596.00000
    11.7054     5586.00000
    11.7185     5679.00000
    11.7317     5718.00000
    11.7448     5635.00000
    11.7579     5615.00000
    11.7711     5595.00000
    11.7842     5713.00000
    11.7973     5622.00000
    11.8104     5584.00000
    11.8236     5625.00000
    11.8367     5668.00000
    11.8498     5589.00000
    11.8630     5535.00000
    11.8761     5564.00000
    11.8892     5613.00000
    11.9024     5552.00000
    11.9155     5538.00000
    11.9286     5461.00000
    11.9417     5469.00000
    11.9549     5476.00000
    11.9680     5513.00000
    11.9811     5453.00000
    11.9943     5507.00000
    12.0074     5552.00000
    12.0205     5619.00000
    12.0337     5597.00000
    12.0468     5393.00000
    12.0599     5604.00000
    12.0731     5525.00000
    12.0862     5484.00000
    12.0993     5642.00000
    12.1124     5668.00000
    12.1256     5626.00000
    12.1387     5532.00000
    12.1518     5415.00000
    12.1650     5496.00000
    12.1781     5658.00000
    12.1912     5559.00000
    12.2044     5659.00000
    12.2175     5531.00000
    12.2306     5542.00000
    12.2437     5426.00000
    12.2569     5513.00000
    12.2700     5382.00000
    12.2831     5440.00000
    12.2963     5319.00000
    12.3094     5401.00000
    12.3225     5453.00000
    12.3357     5415.00000
    12.3488     5438.00000
    12.3619     5420.00000
    12.3750     5386.00000
    12.3882     5362.00000
    12.4013     5373.00000
    12.4144     5382.00000
    12.4276     5590.00000
    12.4407     5435.00000
    12.4538     5481.00000
    12.4670     5516.00000
    12.4801     5483.00000
    12.4932     5404.00000
    12.5063     5495.00000
    12.5195     5362.00000
    12.5326     5338.00000
    12.5457     5429.00000
    12.5589     5415.00000
    12.5720     5456.00000
    12.5851     5385.00000
    12.5983     5315.00000
    12.6114     5314.00000
    12.6245     5427.00000
    12.6377     5215.00000
    12.6508     5297.00000
    12.6639     5331.00000
    12.6770     5346.00000
    12.6902     5370.00000
    12.7033     5261.00000
    12.7164     5354.00000
    12.7296     5340.00000
    12.7427     5424.00000
    12.7558     5377.00000
    12.7690     5448.00000
    12.7821     5296.00000
    12.7952     5436.00000
    12.8083     5342.00000
    12.8215     5253.00000
    12.8346     5341.00000
    12.8477     5415.00000
    12.8609     5316.00000
    12.8740     5246.00000
    12.8871     5119.00000
    12.9003     5398.00000
    12.9134     5166.00000
    12.9265     5261.00000
    12.9396     5149.00000
    12.9528     5269.00000
    12.9659     5329.00000
    12.9790     5293.00000
    12.9922     5422.00000
    13.0053     5189.00000
    13.0184     5171.00000
    13.0316     5111.00000
    13.0447     5317.00000
    13.0578     5200.00000
    13.0710     5300.00000
    13.0841     5090.00000
    13.0972     5159.00000
    13.1103     5218.00000
    13.1235     5153.00000
    13.1366     5273.00000
    13.1497     5178.00000
    13.1629     5207.00000
    13.1760     5209.00000
    13.1891     5282.00000
    13.2023     5376.00000
    13.2154     5285.00000
    13.2285     5186.00000
    13.2416     5160.00000
    13.2548     5159.00000
    13.2679     5060.00000
    13.2810     5019.00000
    13.2942     5173.00000
    13.3073     5015.00000
    13.3204     5133.00000
    13.3336     5166.00000
    13.3467     5113.00000
    13.3598     5141.00000
    13.3729     5166.00000
    13.3861     5190.00000
    13.3992     5175.00000
    13.4123     5065.00000
    13.4255     5188.00000
    13.4386     5148.00000
    13.4517     5162.00000
    13.4649     4971.00000
    13.4780     5127.00000
    13.4911     5234.00000
    13.5043     5130.00000
    13.5174     5121.00000
    13.5305     5089.00000
    13.5436     4993.00000
    13.5568     5221.00000
    13.5699     5003.00000
    13.5830     4954.00000
    13.5962     5008.00000
    13.6093     5249.00000
    13.6224     5100.00000
    13.6356     5183.00000
    13.6487     5170.00000
    13.6618     5193.00000
    13.6749     5035.00000
    13.6881     5121.00000
    13.7012     5139.00000
    13.7143     4943.00000
    13.7275     4992.00000
    13.7406     5115.00000
    13.7537     5012.00000
    13.7669     5039.00000
    13.7800     5006.00000
    13.7931     5117.00000
    13.8062     5055.00000
    13.8194     5044.00000
    13.8325     5213.00000
    13.8456     4967.00000
    13.8588     5011.00000
    13.8719     4956.00000
    13.8850     4996.00000
    13.8982     5040.00000
    13.9113     5046.00000
    13.9244     4980.00000
    13.9376     5024.00000
    13.9507     4887.00000
    13.9638     4905.00000
    13.9769     4932.00000
    13.9901     4854.00000
    14.0032     4792.00000
    14.0163     4929.00000
    14.0295     5021.00000
    14.0426     4851.00000
    14.0557     4845.00000
    14.0689     4961.00000
    14.0820     4987.00000
    14.0951     4978.00000
    14.1082     4907.00000
    14.1214     4963.00000
    14.1345     4977.00000
    14.1476     4890.00000
    14.1608     4970.00000
    14.1739     4945.00000
    14.1870     4982.00000
    14.2002     4931.00000
    14.2133     4908.00000
    14.2264     4856.00000
    14.2395     5006.00000
    14.2527     4968.00000
    14.2658     4848.00000
    14.2789     4786.00000
    14.2921     4850.00000
    14.3052     4877.00000
    14.3183     4859.00000
    14.3315     4904.00000
    14.3446     4909.00000
    14.3577     5005.00000
    14.3708     5003.00000
    14.3840     4789.00000
    14.3971     4825.00000
    14.4102     4868.00000
    14.4234     4841.00000
    14.4365     4888.00000
    14.4496     4899.00000
    14.4628     4769.00000
    14.4759     4816.00000
    14.4890     4953.00000
    14.5022     4749.00000
    14.5153     4733.00000
    14.5284     4882.00000
    14.5415     4793.00000
    14.5547     4737.00000
    14.5678     4772.00000
    14.5809     4771.00000
    14.5941     4708.00000
    14.6072     4878.00000
    14.6203     4879.00000
    14.6335     4768.00000
    14.6466     4753.00000
    14.6597     4898.00000
    14.6728     4875.00000
    14.6860     4788.00000
    14.6991     4778.00000
    14.7122     4824.00000
    14.7254     4663.00000
    14.7385     4775.00000
    14.7516     4737.00000
    14.7648     4877.00000
    14.7779     4923.00000
    14.7910     4745.00000
    14.8041     4787.00000
    14.8173     4831.00000
    14.8304     4682.00000
    14.8435     4742.00000
    14.8567     4719.00000
    14.8698     4894.00000
    14.8829     4787.00000
    14.8961     4934.00000
    14.9092     4776.00000
    14.9223     4781.00000
    14.9355     4768.00000
    14.9486     4567.00000
    14.9617     4746.00000
    14.9748     4882.00000
    14.9880     4874.00000
    15.0011     4615.00000
    15.0142     4742.00000
    15.0274     4756.00000
    15.0405     4868.00000
    15.0536     4844.00000
    15.0668     4857.00000
    15.0799     4701.00000
    15.0930     4852.00000
    15.1061     4709.00000
    15.1193     4748.00000
    15.1324     4913.00000
    15.1455     4745.00000
    15.1587     4853.00000
    15.1718     4665.00000
    15.1849     4688.00000
    15.1981     4765.00000
    15.2112     4675.00000
    15.2243     4740.00000
    15.2374     4704.00000
    15.2506     4696.00000
    15.2637     4563.00000
    15.2768     4721.00000
    15.2900     4514.00000
    15.3031     4686.00000
    15.3162     4557.00000
    15.3294     4667.00000
    15.3425     4575.00000
    15.3556     4639.00000
    15.3688     4851.00000
    15.3819     4786.00000
    15.3950     4680.00000
    15.4081     4733.00000
    15.4213     4646.00000
    15.4344     4864.00000
    15.4475     4635.00000
    15.4607     4614.00000
    15.4738     4706.00000
    15.4869     4538.00000
    15.5001     4750.00000
    15.5132     4584.00000
    15.5263     4644.00000
    15.5394     4547.00000
    15.5526     4734.00000
    15.5657     4637.00000
    15.5788     4589.00000
    15.5920     4695.00000
    15.6051     4737.00000
    15.6182     4641.00000
    15.6314     4624.00000
    15.6445     4599.00000
    15.6576     4620.00000
    15.6707     4611.00000
    15.6839     4612.00000
    15.6970     4627.00000
    15.7101     4690.00000
    15.7233     4534.00000
    15.7364     4582.00000
    15.7495     4636.00000
    15.7627     4630.00000
    15.7758     4662.00000
    15.7889     4569.00000
    15.8021     4557.00000
    15.8152     4587.00000
    15.8283     4659.00000
    15.8414     4798.00000
    15.8546     4525.00000
    15.8677     4603.00000
    15.8808     4547.00000
    15.8940     4686.00000
    15.9071     4589.00000
    15.9202     4661.00000
    15.9334     4537.00000
    15.9465     4593.00000
    15.9596     4722.00000
    15.9727     4408.00000
    15.9859     4764.00000
    15.9990     4640.00000
    16.0121     4617.00000
    16.0253     4510.00000
    16.0384     4608.00000
    16.0515     4581.00000
    16.0647     4673.00000
    16.0778     4656.00000
    16.0909     4681.00000
    16.1040     4682.00000
    16.1172     4649.00000
    16.1303     4698.00000
    16.1434     4757.00000
    16.1566     4776.00000
    16.1697     4822.00000
    16.1828     4647.00000
    16.1960     4642.00000
    16.2091     4784.00000
    16.2222     4726.00000
    16.2353     4822.00000
    16.2485     4667.00000
    16.2616     4663.00000
    16.2747     4676.00000
    16.2879     4805.00000
    16.3010     4764.00000
    16.3141     4703.00000
    16.3273     4698.00000
    16.3404     4744.00000
    16.3535     4678.00000
    16.3667     4832.00000
    16.3798     4617.00000
    16.3929     4528.00000
    16.4060     4653.00000
    16.4192     4699.00000
    16.4323     4690.00000
    16.4454     4636.00000
    16.4586     4579.00000
    16.4717     4599.00000
    16.4848     4605.00000
    16.4980     4444.00000
    16.5111     4398.00000
    16.5242     4555.00000
    16.5373     4600.00000
    16.5505     4454.00000
    16.5636     4588.00000
    16.5767     4496.00000
    16.5899     4485.00000
    16.6030     4562.00000
    16.6161     4502.00000
    16.6293     4462.00000
    16.6424     4513.00000
    16.6555     4520.00000
    16.6686     4548.00000
    16.6818     4452.00000
    16.6949     4425.00000
    16.7080     4367.00000
    16.7212     4382.00000
    16.7343     4531.00000
    16.7474     4527.00000
    16.7606     4559.00000
    16.7737     4508.00000
    16.7868     4537.00000
    16.8000     4436.00000
    16.8131     4472.00000
    16.8262     4504.00000
    16.8393     4361.00000
    16.8525     4535.00000
    16.8656     4526.00000
    16.8787     4424.00000
    16.8919     4453.00000
    16.9050     4380.00000
    16.9181     4420.00000
    16.9313     4338.00000
    16.9444     4425.00000
    16.9575     4650.00000
    16.9706     4463.00000
    16.9838     4378.00000
    16.9969     4248.00000
    17.0100     4391.00000
    17.0232     4518.00000
    17.0363     4352.00000
    17.0494     4457.00000
    17.0626     4399.00000
    17.0757     4428.00000
    17.0888     4335.00000
    17.1019     4442.00000
    17.1151     4445.00000
    17.1282     4423.00000
    17.1413     4348.00000
    17.1545     4329.00000
    17.1676     4407.00000
    17.1807     4562.00000
    17.1939     4451.00000
    17.2070     4366.00000
    17.2201     4467.00000
    17.2333     4436.00000
    17.2464     4501.00000
    17.2595     4608.00000
    17.2726     4482.00000
    17.2858     4411.00000
    17.2989     4390.00000
    17.3120     4360.00000
    17.3252     4423.00000
    17.3383     4469.00000
    17.3514     4400.00000
    17.3646     4392.00000
    17.3777     4520.00000
    17.3908     4399.00000
    17.4039     4356.00000
    17.4171     4385.00000
    17.4302     4289.00000
    17.4433     4444.00000
    17.4565     4343.00000
    17.4696     4316.00000
    17.4827     4292.00000
    17.4959     4282.00000
    17.5090     4326.00000
    17.5221     4290.00000
    17.5352     4274.00000
    17.5484     4277.00000
    17.5615     4304.00000
    17.5746     4337.00000
    17.5878     4323.00000
    17.6009     4389.00000
    17.6140     4333.00000
    17.6272     4329.00000
    17.6403     4291.00000
    17.6534     4371.00000
    17.6666     4394.00000
    17.6797     4422.00000
    17.6928     4569.00000
    17.7059     4589.00000
    17.7191     4647.00000
    17.7322     4660.00000
    17.7453     4537.00000
    17.7585     4449.00000
    17.7716     4370.00000
    17.7847     4373.00000
    17.7979     4427.00000
    17.8110     4192.00000
    17.8241     4253.00000
    17.8372     4193.00000
    17.8504     4311.00000
    17.8635     4343.00000
    17.8766     4217.00000
    17.8898     4249.00000
    17.9029     4336.00000
    17.9160     4242.00000
    17.9292     4138.00000
    17.9423     4175.00000
    17.9554     4154.00000
    17.9685     4365.00000
    17.9817     4261.00000
    17.9948     4220.00000
    18.0079     4202.00000
    18.0211     4313.00000
    18.0342     4340.00000
    18.0473     4191.00000
    18.0605     4332.00000
    18.0736     4203.00000
    18.0867     4224.00000
    18.0998     4225.00000
    18.1130     4146.00000
    18.1261     4155.00000
    18.1392     4193.00000
    18.1524     4143.00000
    18.1655     4215.00000
    18.1786     4171.00000
    18.1918     4232.00000
    18.2049     4289.00000
    18.2180     4145.00000
    18.2312     4152.00000
    18.2443     4226.00000
    18.2574     4173.00000
    18.2705     4205.00000
    18.2837     4165.00000
    18.2968     4260.00000
    18.3099     4081.00000
    18.3231     4121.00000
    18.3362     4236.00000
    18.3493     4114.00000
    18.3625     4114.00000
    18.3756     4119.00000
    18.3887     4082.00000
    18.4018     4149.00000
    18.4150     4329.00000
    18.4281     4122.00000
    18.4412     4168.00000
    18.4544     4120.00000
    18.4675     4205.00000
    18.4806     4127.00000
    18.4938     4138.00000
    18.5069     4148.00000
    18.5200     4188.00000
    18.5331     4161.00000
    18.5463     4154.00000
    18.5594     4116.00000
    18.5725     4162.00000
    18.5857     4224.00000
    18.5988     4210.00000
    18.6119     4133.00000
    18.6251     4180.00000
    18.6382     4269.00000
    18.6513     4201.00000
    18.6645     4320.00000
    18.6776     4229.00000
    18.6907     4217.00000
    18.7038     4019.00000
    18.7170     4251.00000
    18.7301     4126.00000
    18.7432     4120.00000
    18.7564     4221.00000
    18.7695     4090.00000
    18.7826     4066.00000
    18.7958     4115.00000
    18.8089     4036.00000
    18.8220     4116.00000
    18.8351     4209.00000
    18.8483     4065.00000
    18.8614     4018.00000
    18.8745     4133.00000
    18.8877     4125.00000
    18.9008     4221.00000
    18.9139     4340.00000
    18.9271     4268.00000
    18.9402     4319.00000
    18.9533     4290.00000
