! Initial file:   D:\ZAKARY_OUAIL\MA_THESE\Deuxième_année_de_thèse\DRX\Manips_DRX\1st_NaTaO2F2_XRK900\NaTaO2F2-Lent_300°C.xrdml
! Initial format:  58
! WAVE (A):      1.54060     1.54060     1.00000
! REM : data have been multiplied by     1.0000
! X_data : 2 Theta (deg.)                                                                                                                                                                                                                                                  
! Y_data : Intensity (arb. units)                                                                                                                                                                                                                                          
!     X         Y
!--------------------------------------------------------------------------------
    10.0116     6326.00000
    10.0247     6334.00000
    10.0379     6315.00000
    10.0510     6338.00000
    10.0641     6214.00000
    10.0772     6330.00000
    10.0904     6250.00000
    10.1035     6251.00000
    10.1166     6288.00000
    10.1298     6109.00000
    10.1429     6214.00000
    10.1560     6178.00000
    10.1692     6255.00000
    10.1823     6053.00000
    10.1954     6157.00000
    10.2086     6101.00000
    10.2217     6277.00000
    10.2348     6150.00000
    10.2479     6153.00000
    10.2611     6044.00000
    10.2742     6211.00000
    10.2873     6055.00000
    10.3005     6131.00000
    10.3136     6089.00000
    10.3267     6252.00000
    10.3399     6094.00000
    10.3530     5985.00000
    10.3661     6086.00000
    10.3792     6067.00000
    10.3924     6061.00000
    10.4055     6100.00000
    10.4186     5969.00000
    10.4318     6055.00000
    10.4449     6114.00000
    10.4580     5990.00000
    10.4712     5995.00000
    10.4843     6049.00000
    10.4974     5950.00000
    10.5105     6007.00000
    10.5237     6060.00000
    10.5368     6067.00000
    10.5499     6190.00000
    10.5631     5986.00000
    10.5762     5967.00000
    10.5893     5997.00000
    10.6025     5807.00000
    10.6156     6065.00000
    10.6287     5992.00000
    10.6418     5853.00000
    10.6550     6022.00000
    10.6681     5961.00000
    10.6812     5967.00000
    10.6944     5958.00000
    10.7075     6050.00000
    10.7206     6068.00000
    10.7338     6139.00000
    10.7469     6088.00000
    10.7600     6016.00000
    10.7732     6221.00000
    10.7863     6354.00000
    10.7994     6265.00000
    10.8125     6318.00000
    10.8257     6309.00000
    10.8388     6172.00000
    10.8519     6281.00000
    10.8651     6270.00000
    10.8782     6304.00000
    10.8913     6584.00000
    10.9045     6386.00000
    10.9176     6518.00000
    10.9307     6633.00000
    10.9438     6810.00000
    10.9570     7318.00000
    10.9701     7909.00000
    10.9832     8602.00000
    10.9964     9579.00000
    11.0095    10831.00000
    11.0226    12536.00000
    11.0358    16026.00000
    11.0489    21457.00000
    11.0620    26750.00000
    11.0751    33421.00000
    11.0883    41267.00000
    11.1014    46730.00000
    11.1145    48532.00000
    11.1277    46014.00000
    11.1408    39427.00000
    11.1539    32895.00000
    11.1671    25938.00000
    11.1802    19607.00000
    11.1933    15317.00000
    11.2065    11246.00000
    11.2196     9112.00000
    11.2327     7805.00000
    11.2458     7126.00000
    11.2590     6733.00000
    11.2721     6561.00000
    11.2852     6554.00000
    11.2984     6460.00000
    11.3115     6172.00000
    11.3246     6136.00000
    11.3378     6087.00000
    11.3509     5972.00000
    11.3640     5881.00000
    11.3771     5875.00000
    11.3903     5925.00000
    11.4034     5760.00000
    11.4165     5831.00000
    11.4297     5923.00000
    11.4428     5902.00000
    11.4559     5937.00000
    11.4691     5857.00000
    11.4822     5893.00000
    11.4953     5890.00000
    11.5084     5820.00000
    11.5216     5930.00000
    11.5347     5817.00000
    11.5478     5820.00000
    11.5610     5710.00000
    11.5741     5697.00000
    11.5872     5673.00000
    11.6004     5628.00000
    11.6135     5624.00000
    11.6266     5719.00000
    11.6398     5790.00000
    11.6529     5725.00000
    11.6660     5775.00000
    11.6791     5762.00000
    11.6923     5658.00000
    11.7054     5606.00000
    11.7185     5473.00000
    11.7317     5689.00000
    11.7448     5659.00000
    11.7579     5717.00000
    11.7711     5522.00000
    11.7842     5738.00000
    11.7973     5542.00000
    11.8104     5587.00000
    11.8236     5636.00000
    11.8367     5681.00000
    11.8498     5512.00000
    11.8630     5565.00000
    11.8761     5794.00000
    11.8892     5566.00000
    11.9024     5620.00000
    11.9155     5634.00000
    11.9286     5575.00000
    11.9417     5641.00000
    11.9549     5653.00000
    11.9680     5525.00000
    11.9811     5557.00000
    11.9943     5496.00000
    12.0074     5559.00000
    12.0205     5447.00000
    12.0337     5541.00000
    12.0468     5603.00000
    12.0599     5464.00000
    12.0731     5551.00000
    12.0862     5545.00000
    12.0993     5459.00000
    12.1124     5590.00000
    12.1256     5526.00000
    12.1387     5556.00000
    12.1518     5546.00000
    12.1650     5573.00000
    12.1781     5456.00000
    12.1912     5577.00000
    12.2044     5452.00000
    12.2175     5537.00000
    12.2306     5464.00000
    12.2437     5541.00000
    12.2569     5287.00000
    12.2700     5254.00000
    12.2831     5347.00000
    12.2963     5434.00000
    12.3094     5562.00000
    12.3225     5480.00000
    12.3357     5361.00000
    12.3488     5428.00000
    12.3619     5405.00000
    12.3750     5412.00000
    12.3882     5346.00000
    12.4013     5444.00000
    12.4144     5337.00000
    12.4276     5475.00000
    12.4407     5452.00000
    12.4538     5393.00000
    12.4670     5433.00000
    12.4801     5356.00000
    12.4932     5523.00000
    12.5063     5335.00000
    12.5195     5453.00000
    12.5326     5252.00000
    12.5457     5391.00000
    12.5589     5434.00000
    12.5720     5272.00000
    12.5851     5435.00000
    12.5983     5293.00000
    12.6114     5354.00000
    12.6245     5564.00000
    12.6377     5203.00000
    12.6508     5361.00000
    12.6639     5328.00000
    12.6770     5251.00000
    12.6902     5283.00000
    12.7033     5469.00000
    12.7164     5276.00000
    12.7296     5226.00000
    12.7427     5453.00000
    12.7558     5282.00000
    12.7690     5328.00000
    12.7821     5250.00000
    12.7952     5416.00000
    12.8083     5315.00000
    12.8215     5261.00000
    12.8346     5362.00000
    12.8477     5361.00000
    12.8609     5170.00000
    12.8740     5243.00000
    12.8871     5125.00000
    12.9003     5213.00000
    12.9134     5245.00000
    12.9265     5271.00000
    12.9396     5289.00000
    12.9528     5299.00000
    12.9659     5237.00000
    12.9790     5144.00000
    12.9922     5313.00000
    13.0053     5344.00000
    13.0184     5084.00000
    13.0316     5248.00000
    13.0447     5106.00000
    13.0578     5264.00000
    13.0710     5273.00000
    13.0841     5117.00000
    13.0972     5335.00000
    13.1103     5050.00000
    13.1235     5200.00000
    13.1366     5224.00000
    13.1497     5209.00000
    13.1629     5284.00000
    13.1760     5307.00000
    13.1891     5188.00000
    13.2023     5165.00000
    13.2154     5183.00000
    13.2285     5123.00000
    13.2416     5225.00000
    13.2548     5163.00000
    13.2679     5134.00000
    13.2810     5149.00000
    13.2942     5165.00000
    13.3073     5064.00000
    13.3204     5089.00000
    13.3336     5089.00000
    13.3467     5103.00000
    13.3598     5181.00000
    13.3729     5117.00000
    13.3861     5100.00000
    13.3992     5047.00000
    13.4123     5109.00000
    13.4255     5068.00000
    13.4386     5191.00000
    13.4517     5036.00000
    13.4649     5061.00000
    13.4780     5122.00000
    13.4911     5065.00000
    13.5043     5109.00000
    13.5174     5211.00000
    13.5305     5021.00000
    13.5436     5014.00000
    13.5568     4896.00000
    13.5699     5065.00000
    13.5830     5021.00000
    13.5962     5104.00000
    13.6093     5093.00000
    13.6224     5073.00000
    13.6356     5020.00000
    13.6487     5017.00000
    13.6618     4988.00000
    13.6749     5037.00000
    13.6881     5026.00000
    13.7012     5126.00000
    13.7143     5103.00000
    13.7275     4965.00000
    13.7406     5001.00000
    13.7537     5005.00000
    13.7669     4999.00000
    13.7800     5172.00000
    13.7931     5074.00000
    13.8062     5073.00000
    13.8194     4952.00000
    13.8325     5088.00000
    13.8456     5027.00000
    13.8588     5066.00000
    13.8719     4995.00000
    13.8850     4950.00000
    13.8982     5074.00000
    13.9113     4971.00000
    13.9244     4874.00000
    13.9376     4798.00000
    13.9507     5095.00000
    13.9638     4920.00000
    13.9769     4836.00000
    13.9901     4762.00000
    14.0032     5024.00000
    14.0163     5122.00000
    14.0295     4882.00000
    14.0426     4913.00000
    14.0557     4925.00000
    14.0689     4908.00000
    14.0820     4854.00000
    14.0951     4878.00000
    14.1082     4873.00000
    14.1214     4988.00000
    14.1345     4833.00000
    14.1476     4848.00000
    14.1608     4906.00000
    14.1739     4752.00000
    14.1870     4749.00000
    14.2002     4869.00000
    14.2133     4879.00000
    14.2264     4868.00000
    14.2395     4924.00000
    14.2527     4842.00000
    14.2658     4949.00000
    14.2789     5033.00000
    14.2921     4750.00000
    14.3052     4963.00000
    14.3183     4921.00000
    14.3315     4936.00000
    14.3446     4708.00000
    14.3577     4779.00000
    14.3708     4845.00000
    14.3840     4744.00000
    14.3971     4777.00000
    14.4102     4978.00000
    14.4234     5028.00000
    14.4365     4843.00000
    14.4496     4747.00000
    14.4628     4916.00000
    14.4759     4779.00000
    14.4890     4842.00000
    14.5022     4721.00000
    14.5153     4707.00000
    14.5284     4881.00000
    14.5415     4871.00000
    14.5547     4713.00000
    14.5678     4849.00000
    14.5809     4794.00000
    14.5941     4933.00000
    14.6072     4738.00000
    14.6203     4872.00000
    14.6335     4815.00000
    14.6466     4770.00000
    14.6597     4709.00000
    14.6728     4852.00000
    14.6860     4911.00000
    14.6991     4799.00000
    14.7122     4817.00000
    14.7254     4877.00000
    14.7385     4688.00000
    14.7516     4788.00000
    14.7648     4808.00000
    14.7779     4843.00000
    14.7910     4707.00000
    14.8041     4739.00000
    14.8173     4735.00000
    14.8304     4757.00000
    14.8435     4773.00000
    14.8567     4844.00000
    14.8698     4775.00000
    14.8829     4775.00000
    14.8961     4721.00000
    14.9092     4761.00000
    14.9223     4875.00000
    14.9355     4799.00000
    14.9486     4792.00000
    14.9617     4753.00000
    14.9748     4636.00000
    14.9880     4659.00000
    15.0011     4695.00000
    15.0142     4798.00000
    15.0274     4674.00000
    15.0405     4707.00000
    15.0536     4871.00000
    15.0668     4753.00000
    15.0799     4767.00000
    15.0930     4697.00000
    15.1061     4792.00000
    15.1193     4742.00000
    15.1324     4660.00000
    15.1455     4676.00000
    15.1587     4611.00000
    15.1718     4699.00000
    15.1849     4831.00000
    15.1981     4496.00000
    15.2112     4709.00000
    15.2243     4561.00000
    15.2374     4677.00000
    15.2506     4698.00000
    15.2637     4704.00000
    15.2768     4635.00000
    15.2900     4700.00000
    15.3031     4526.00000
    15.3162     4572.00000
    15.3294     4449.00000
    15.3425     4578.00000
    15.3556     4611.00000
    15.3688     4772.00000
    15.3819     4685.00000
    15.3950     4644.00000
    15.4081     4682.00000
    15.4213     4728.00000
    15.4344     4710.00000
    15.4475     4765.00000
    15.4607     4510.00000
    15.4738     4616.00000
    15.4869     4550.00000
    15.5001     4582.00000
    15.5132     4696.00000
    15.5263     4706.00000
    15.5394     4562.00000
    15.5526     4536.00000
    15.5657     4620.00000
    15.5788     4595.00000
    15.5920     4659.00000
    15.6051     4658.00000
    15.6182     4688.00000
    15.6314     4617.00000
    15.6445     4621.00000
    15.6576     4737.00000
    15.6707     4617.00000
    15.6839     4614.00000
    15.6970     4634.00000
    15.7101     4540.00000
    15.7233     4650.00000
    15.7364     4618.00000
    15.7495     4563.00000
    15.7627     4497.00000
    15.7758     4616.00000
    15.7889     4700.00000
    15.8021     4639.00000
    15.8152     4636.00000
    15.8283     4609.00000
    15.8414     4562.00000
    15.8546     4592.00000
    15.8677     4557.00000
    15.8808     4575.00000
    15.8940     4536.00000
    15.9071     4602.00000
    15.9202     4614.00000
    15.9334     4634.00000
    15.9465     4478.00000
    15.9596     4518.00000
    15.9727     4519.00000
    15.9859     4611.00000
    15.9990     4610.00000
    16.0121     4575.00000
    16.0253     4541.00000
    16.0384     4659.00000
    16.0515     4635.00000
    16.0647     4523.00000
    16.0778     4633.00000
    16.0909     4637.00000
    16.1040     4662.00000
    16.1172     4698.00000
    16.1303     4710.00000
    16.1434     4773.00000
    16.1566     4775.00000
    16.1697     4809.00000
    16.1828     4605.00000
    16.1960     4592.00000
    16.2091     4750.00000
    16.2222     4590.00000
    16.2353     4811.00000
    16.2485     4774.00000
    16.2616     4663.00000
    16.2747     4785.00000
    16.2879     4637.00000
    16.3010     4648.00000
    16.3141     4660.00000
    16.3273     4646.00000
    16.3404     4711.00000
    16.3535     4635.00000
    16.3667     4527.00000
    16.3798     4662.00000
    16.3929     4575.00000
    16.4060     4702.00000
    16.4192     4566.00000
    16.4323     4574.00000
    16.4454     4764.00000
    16.4586     4730.00000
    16.4717     4627.00000
    16.4848     4574.00000
    16.4980     4632.00000
    16.5111     4646.00000
    16.5242     4531.00000
    16.5373     4573.00000
    16.5505     4637.00000
    16.5636     4529.00000
    16.5767     4511.00000
    16.5899     4365.00000
    16.6030     4379.00000
    16.6161     4521.00000
    16.6293     4336.00000
    16.6424     4358.00000
    16.6555     4342.00000
    16.6686     4562.00000
    16.6818     4445.00000
    16.6949     4591.00000
    16.7080     4518.00000
    16.7212     4374.00000
    16.7343     4403.00000
    16.7474     4467.00000
    16.7606     4415.00000
    16.7737     4401.00000
    16.7868     4407.00000
    16.8000     4422.00000
    16.8131     4487.00000
    16.8262     4483.00000
    16.8393     4562.00000
    16.8525     4464.00000
    16.8656     4420.00000
    16.8787     4285.00000
    16.8919     4433.00000
    16.9050     4456.00000
    16.9181     4379.00000
    16.9313     4468.00000
    16.9444     4429.00000
    16.9575     4576.00000
    16.9706     4485.00000
    16.9838     4367.00000
    16.9969     4524.00000
    17.0100     4308.00000
    17.0232     4384.00000
    17.0363     4403.00000
    17.0494     4417.00000
    17.0626     4626.00000
    17.0757     4420.00000
    17.0888     4410.00000
    17.1019     4392.00000
    17.1151     4429.00000
    17.1282     4584.00000
    17.1413     4511.00000
    17.1545     4418.00000
    17.1676     4419.00000
    17.1807     4524.00000
    17.1939     4494.00000
    17.2070     4465.00000
    17.2201     4513.00000
    17.2333     4519.00000
    17.2464     4431.00000
    17.2595     4479.00000
    17.2726     4461.00000
    17.2858     4367.00000
    17.2989     4419.00000
    17.3120     4403.00000
    17.3252     4506.00000
    17.3383     4373.00000
    17.3514     4413.00000
    17.3646     4413.00000
    17.3777     4258.00000
    17.3908     4353.00000
    17.4039     4189.00000
    17.4171     4346.00000
    17.4302     4405.00000
    17.4433     4412.00000
    17.4565     4228.00000
    17.4696     4362.00000
    17.4827     4389.00000
    17.4959     4368.00000
    17.5090     4349.00000
    17.5221     4250.00000
    17.5352     4261.00000
    17.5484     4398.00000
    17.5615     4258.00000
    17.5746     4434.00000
    17.5878     4410.00000
    17.6009     4317.00000
    17.6140     4292.00000
    17.6272     4292.00000
    17.6403     4360.00000
    17.6534     4377.00000
    17.6666     4431.00000
    17.6797     4520.00000
    17.6928     4646.00000
    17.7059     4656.00000
    17.7191     4543.00000
    17.7322     4676.00000
    17.7453     4552.00000
    17.7585     4564.00000
    17.7716     4440.00000
    17.7847     4352.00000
    17.7979     4332.00000
    17.8110     4365.00000
    17.8241     4304.00000
    17.8372     4206.00000
    17.8504     4297.00000
    17.8635     4359.00000
    17.8766     4136.00000
    17.8898     4203.00000
    17.9029     4241.00000
    17.9160     4133.00000
    17.9292     4270.00000
    17.9423     4249.00000
    17.9554     4261.00000
    17.9685     4185.00000
    17.9817     4178.00000
    17.9948     4319.00000
    18.0079     4258.00000
    18.0211     4347.00000
    18.0342     4116.00000
    18.0473     4203.00000
    18.0605     4178.00000
    18.0736     4230.00000
    18.0867     4162.00000
    18.0998     4292.00000
    18.1130     4067.00000
    18.1261     4166.00000
    18.1392     4182.00000
    18.1524     4267.00000
    18.1655     4233.00000
    18.1786     4135.00000
    18.1918     4166.00000
    18.2049     4167.00000
    18.2180     4141.00000
    18.2312     4133.00000
    18.2443     4132.00000
    18.2574     4295.00000
    18.2705     4154.00000
    18.2837     4148.00000
    18.2968     4148.00000
    18.3099     4155.00000
    18.3231     4113.00000
    18.3362     4038.00000
    18.3493     4166.00000
    18.3625     4114.00000
    18.3756     4141.00000
    18.3887     4210.00000
    18.4018     4142.00000
    18.4150     4260.00000
    18.4281     4067.00000
    18.4412     4152.00000
    18.4544     4179.00000
    18.4675     3925.00000
    18.4806     4102.00000
    18.4938     4147.00000
    18.5069     4017.00000
    18.5200     4168.00000
    18.5331     4270.00000
    18.5463     4247.00000
    18.5594     4229.00000
    18.5725     4164.00000
    18.5857     4251.00000
    18.5988     4193.00000
    18.6119     4194.00000
    18.6251     4140.00000
    18.6382     4178.00000
    18.6513     4146.00000
    18.6645     4156.00000
    18.6776     4171.00000
    18.6907     4217.00000
    18.7038     4139.00000
    18.7170     4155.00000
    18.7301     4103.00000
    18.7432     4144.00000
    18.7564     4080.00000
    18.7695     4129.00000
    18.7826     4068.00000
    18.7958     4026.00000
    18.8089     4043.00000
    18.8220     4076.00000
    18.8351     4083.00000
    18.8483     4093.00000
    18.8614     4049.00000
    18.8745     4226.00000
    18.8877     4154.00000
    18.9008     4160.00000
    18.9139     4167.00000
    18.9271     4149.00000
    18.9402     4246.00000
    18.9533     4291.00000
