! Initial file:   D:\ZAKARY_OUAIL\MA_THESE\Deuxième_année_de_thèse\DRX\Manips_DRX\1st_NaTaO2F2_XRK900\NaTaO2F2-Lent_40°C.xrdml
! Initial format:  58
! WAVE (A):      1.54060     1.54060     1.00000
! REM : data have been multiplied by     1.0000
! X_data : 2 Theta (deg.)                                                                                                                                                                                                                                                  
! Y_data : Intensity (arb. units)                                                                                                                                                                                                                                          
!     X         Y
!--------------------------------------------------------------------------------
    10.0116     7369.00000
    10.0247     7552.00000
    10.0379     7534.00000
    10.0510     7522.00000
    10.0641     7508.00000
    10.0772     7301.00000
    10.0904     7343.00000
    10.1035     7333.00000
    10.1166     7276.00000
    10.1298     7403.00000
    10.1429     7254.00000
    10.1560     7500.00000
    10.1692     7154.00000
    10.1823     7364.00000
    10.1954     7304.00000
    10.2086     7382.00000
    10.2217     7203.00000
    10.2348     7130.00000
    10.2479     7291.00000
    10.2611     7199.00000
    10.2742     7426.00000
    10.2873     7191.00000
    10.3005     7186.00000
    10.3136     7091.00000
    10.3267     7222.00000
    10.3399     7350.00000
    10.3530     7298.00000
    10.3661     7251.00000
    10.3792     7191.00000
    10.3924     7340.00000
    10.4055     7116.00000
    10.4186     7195.00000
    10.4318     7171.00000
    10.4449     7277.00000
    10.4580     7198.00000
    10.4712     7283.00000
    10.4843     7137.00000
    10.4974     7129.00000
    10.5105     7262.00000
    10.5237     7055.00000
    10.5368     7077.00000
    10.5499     7050.00000
    10.5631     7040.00000
    10.5762     7083.00000
    10.5893     7121.00000
    10.6025     7052.00000
    10.6156     7078.00000
    10.6287     6995.00000
    10.6418     7001.00000
    10.6550     7028.00000
    10.6681     7226.00000
    10.6812     7178.00000
    10.6944     7051.00000
    10.7075     7239.00000
    10.7206     7218.00000
    10.7338     7082.00000
    10.7469     7188.00000
    10.7600     7220.00000
    10.7732     7165.00000
    10.7863     7384.00000
    10.7994     7441.00000
    10.8125     7392.00000
    10.8257     7317.00000
    10.8388     7444.00000
    10.8519     7260.00000
    10.8651     7268.00000
    10.8782     7452.00000
    10.8913     7432.00000
    10.9045     7464.00000
    10.9176     7500.00000
    10.9307     7575.00000
    10.9438     7746.00000
    10.9570     8153.00000
    10.9701     8408.00000
    10.9832     8904.00000
    10.9964     9354.00000
    11.0095    10321.00000
    11.0226    11172.00000
    11.0358    12779.00000
    11.0489    15469.00000
    11.0620    19927.00000
    11.0751    26266.00000
    11.0883    33619.00000
    11.1014    41698.00000
    11.1145    49245.00000
    11.1277    52370.00000
    11.1408    48929.00000
    11.1539    41869.00000
    11.1671    35194.00000
    11.1802    28133.00000
    11.1933    21965.00000
    11.2065    16964.00000
    11.2196    13099.00000
    11.2327    10382.00000
    11.2458     8946.00000
    11.2590     8074.00000
    11.2721     7823.00000
    11.2852     7610.00000
    11.2984     7484.00000
    11.3115     7455.00000
    11.3246     7163.00000
    11.3378     6965.00000
    11.3509     7080.00000
    11.3640     7048.00000
    11.3771     6859.00000
    11.3903     6853.00000
    11.4034     6890.00000
    11.4165     7060.00000
    11.4297     7089.00000
    11.4428     6906.00000
    11.4559     6835.00000
    11.4691     6890.00000
    11.4822     6934.00000
    11.4953     6733.00000
    11.5084     6820.00000
    11.5216     6784.00000
    11.5347     6835.00000
    11.5478     6801.00000
    11.5610     6772.00000
    11.5741     6823.00000
    11.5872     6726.00000
    11.6004     6850.00000
    11.6135     6802.00000
    11.6266     6511.00000
    11.6398     6619.00000
    11.6529     6686.00000
    11.6660     6679.00000
    11.6791     6602.00000
    11.6923     6697.00000
    11.7054     6618.00000
    11.7185     6667.00000
    11.7317     6740.00000
    11.7448     6587.00000
    11.7579     6738.00000
    11.7711     6551.00000
    11.7842     6724.00000
    11.7973     6613.00000
    11.8104     6731.00000
    11.8236     6566.00000
    11.8367     6624.00000
    11.8498     6687.00000
    11.8630     6516.00000
    11.8761     6661.00000
    11.8892     6666.00000
    11.9024     6481.00000
    11.9155     6584.00000
    11.9286     6484.00000
    11.9417     6541.00000
    11.9549     6494.00000
    11.9680     6509.00000
    11.9811     6515.00000
    11.9943     6415.00000
    12.0074     6567.00000
    12.0205     6583.00000
    12.0337     6525.00000
    12.0468     6550.00000
    12.0599     6387.00000
    12.0731     6531.00000
    12.0862     6349.00000
    12.0993     6292.00000
    12.1124     6355.00000
    12.1256     6635.00000
    12.1387     6390.00000
    12.1518     6471.00000
    12.1650     6319.00000
    12.1781     6297.00000
    12.1912     6471.00000
    12.2044     6502.00000
    12.2175     6397.00000
    12.2306     6280.00000
    12.2437     6374.00000
    12.2569     6470.00000
    12.2700     6361.00000
    12.2831     6413.00000
    12.2963     6436.00000
    12.3094     6249.00000
    12.3225     6322.00000
    12.3357     6250.00000
    12.3488     6316.00000
    12.3619     6296.00000
    12.3750     6397.00000
    12.3882     6407.00000
    12.4013     6360.00000
    12.4144     6195.00000
    12.4276     6259.00000
    12.4407     6359.00000
    12.4538     6280.00000
    12.4670     6344.00000
    12.4801     6169.00000
    12.4932     6144.00000
    12.5063     6311.00000
    12.5195     6439.00000
    12.5326     6301.00000
    12.5457     6199.00000
    12.5589     6321.00000
    12.5720     6291.00000
    12.5851     6254.00000
    12.5983     6225.00000
    12.6114     6241.00000
    12.6245     6257.00000
    12.6377     6256.00000
    12.6508     6157.00000
    12.6639     6344.00000
    12.6770     6180.00000
    12.6902     6242.00000
    12.7033     6220.00000
    12.7164     6125.00000
    12.7296     6149.00000
    12.7427     6192.00000
    12.7558     6182.00000
    12.7690     6155.00000
    12.7821     6098.00000
    12.7952     6200.00000
    12.8083     5970.00000
    12.8215     6275.00000
    12.8346     6141.00000
    12.8477     6080.00000
    12.8609     6073.00000
    12.8740     6225.00000
    12.8871     6112.00000
    12.9003     6249.00000
    12.9134     6207.00000
    12.9265     6227.00000
    12.9396     6092.00000
    12.9528     6089.00000
    12.9659     6050.00000
    12.9790     6077.00000
    12.9922     5973.00000
    13.0053     6022.00000
    13.0184     6018.00000
    13.0316     6193.00000
    13.0447     6110.00000
    13.0578     6060.00000
    13.0710     6150.00000
    13.0841     6184.00000
    13.0972     5996.00000
    13.1103     5993.00000
    13.1235     6263.00000
    13.1366     6146.00000
    13.1497     6086.00000
    13.1629     6116.00000
    13.1760     6055.00000
    13.1891     6081.00000
    13.2023     6081.00000
    13.2154     6049.00000
    13.2285     6111.00000
    13.2416     6052.00000
    13.2548     5972.00000
    13.2679     6125.00000
    13.2810     5964.00000
    13.2942     5824.00000
    13.3073     6003.00000
    13.3204     5978.00000
    13.3336     5978.00000
    13.3467     6040.00000
    13.3598     5970.00000
    13.3729     5911.00000
    13.3861     5992.00000
    13.3992     5878.00000
    13.4123     5891.00000
    13.4255     5869.00000
    13.4386     6061.00000
    13.4517     6052.00000
    13.4649     5956.00000
    13.4780     5933.00000
    13.4911     5882.00000
    13.5043     5884.00000
    13.5174     6102.00000
    13.5305     6006.00000
    13.5436     5894.00000
    13.5568     5899.00000
    13.5699     6033.00000
    13.5830     5996.00000
    13.5962     5869.00000
    13.6093     5779.00000
    13.6224     5876.00000
    13.6356     5701.00000
    13.6487     5732.00000
    13.6618     5851.00000
    13.6749     5997.00000
    13.6881     5783.00000
    13.7012     5842.00000
    13.7143     5913.00000
    13.7275     5849.00000
    13.7406     5747.00000
    13.7537     5963.00000
    13.7669     5856.00000
    13.7800     5860.00000
    13.7931     5839.00000
    13.8062     5859.00000
    13.8194     5733.00000
    13.8325     5803.00000
    13.8456     5798.00000
    13.8588     5937.00000
    13.8719     5894.00000
    13.8850     5736.00000
    13.8982     5852.00000
    13.9113     5816.00000
    13.9244     5874.00000
    13.9376     5771.00000
    13.9507     5762.00000
    13.9638     5764.00000
    13.9769     5673.00000
    13.9901     5862.00000
    14.0032     5783.00000
    14.0163     5641.00000
    14.0295     5564.00000
    14.0426     5761.00000
    14.0557     5551.00000
    14.0689     5626.00000
    14.0820     5652.00000
    14.0951     5677.00000
    14.1082     5716.00000
    14.1214     5668.00000
    14.1345     5711.00000
    14.1476     5709.00000
    14.1608     5618.00000
    14.1739     5664.00000
    14.1870     5743.00000
    14.2002     5509.00000
    14.2133     5618.00000
    14.2264     5663.00000
    14.2395     5687.00000
    14.2527     5571.00000
    14.2658     5726.00000
    14.2789     5755.00000
    14.2921     5671.00000
    14.3052     5569.00000
    14.3183     5768.00000
    14.3315     5548.00000
    14.3446     5533.00000
    14.3577     5459.00000
    14.3708     5633.00000
    14.3840     5621.00000
    14.3971     5428.00000
    14.4102     5471.00000
    14.4234     5503.00000
    14.4365     5510.00000
    14.4496     5437.00000
    14.4628     5549.00000
    14.4759     5604.00000
    14.4890     5550.00000
    14.5022     5585.00000
    14.5153     5625.00000
    14.5284     5587.00000
    14.5415     5636.00000
    14.5547     5618.00000
    14.5678     5521.00000
    14.5809     5604.00000
    14.5941     5549.00000
    14.6072     5455.00000
    14.6203     5519.00000
    14.6335     5495.00000
    14.6466     5594.00000
    14.6597     5589.00000
    14.6728     5570.00000
    14.6860     5672.00000
    14.6991     5330.00000
    14.7122     5421.00000
    14.7254     5492.00000
    14.7385     5465.00000
    14.7516     5471.00000
    14.7648     5529.00000
    14.7779     5511.00000
    14.7910     5392.00000
    14.8041     5400.00000
    14.8173     5465.00000
    14.8304     5448.00000
    14.8435     5554.00000
    14.8567     5562.00000
    14.8698     5304.00000
    14.8829     5420.00000
    14.8961     5466.00000
    14.9092     5454.00000
    14.9223     5483.00000
    14.9355     5483.00000
    14.9486     5502.00000
    14.9617     5420.00000
    14.9748     5401.00000
    14.9880     5371.00000
    15.0011     5382.00000
    15.0142     5445.00000
    15.0274     5240.00000
    15.0405     5372.00000
    15.0536     5462.00000
    15.0668     5187.00000
    15.0799     5313.00000
    15.0930     5469.00000
    15.1061     5276.00000
    15.1193     5400.00000
    15.1324     5411.00000
    15.1455     5370.00000
    15.1587     5372.00000
    15.1718     5305.00000
    15.1849     5426.00000
    15.1981     5400.00000
    15.2112     5374.00000
    15.2243     5476.00000
    15.2374     5355.00000
    15.2506     5353.00000
    15.2637     5329.00000
    15.2768     5454.00000
    15.2900     5357.00000
    15.3031     5463.00000
    15.3162     5461.00000
    15.3294     5434.00000
    15.3425     5355.00000
    15.3556     5266.00000
    15.3688     5348.00000
    15.3819     5329.00000
    15.3950     5281.00000
    15.4081     5309.00000
    15.4213     5343.00000
    15.4344     5406.00000
    15.4475     5271.00000
    15.4607     5332.00000
    15.4738     5379.00000
    15.4869     5310.00000
    15.5001     5352.00000
    15.5132     5241.00000
    15.5263     5145.00000
    15.5394     5296.00000
    15.5526     5285.00000
    15.5657     5293.00000
    15.5788     5299.00000
    15.5920     5299.00000
    15.6051     5368.00000
    15.6182     5266.00000
    15.6314     5291.00000
    15.6445     5122.00000
    15.6576     5157.00000
    15.6707     5402.00000
    15.6839     5305.00000
    15.6970     5226.00000
    15.7101     5135.00000
    15.7233     5157.00000
    15.7364     5221.00000
    15.7495     5286.00000
    15.7627     5415.00000
    15.7758     5319.00000
    15.7889     5163.00000
    15.8021     5345.00000
    15.8152     5149.00000
    15.8283     5362.00000
    15.8414     5343.00000
    15.8546     5068.00000
    15.8677     5259.00000
    15.8808     5147.00000
    15.8940     5100.00000
    15.9071     5269.00000
    15.9202     5331.00000
    15.9334     5334.00000
    15.9465     5222.00000
    15.9596     5166.00000
    15.9727     5239.00000
    15.9859     5269.00000
    15.9990     5249.00000
    16.0121     5280.00000
    16.0253     5290.00000
    16.0384     5136.00000
    16.0515     5179.00000
    16.0647     5097.00000
    16.0778     5213.00000
    16.0909     5216.00000
    16.1040     5184.00000
    16.1172     5146.00000
    16.1303     5453.00000
    16.1434     5286.00000
    16.1566     5283.00000
    16.1697     5294.00000
    16.1828     5320.00000
    16.1960     5180.00000
    16.2091     5329.00000
    16.2222     5370.00000
    16.2353     5334.00000
    16.2485     5355.00000
    16.2616     5299.00000
    16.2747     5412.00000
    16.2879     5338.00000
    16.3010     5305.00000
    16.3141     5351.00000
    16.3273     5163.00000
    16.3404     5248.00000
    16.3535     5218.00000
    16.3667     5245.00000
    16.3798     5400.00000
    16.3929     5226.00000
    16.4060     5382.00000
    16.4192     5397.00000
    16.4323     5326.00000
    16.4454     5444.00000
    16.4586     5309.00000
    16.4717     5242.00000
    16.4848     5256.00000
    16.4980     5259.00000
    16.5111     5232.00000
    16.5242     5221.00000
    16.5373     5236.00000
    16.5505     5263.00000
    16.5636     5226.00000
    16.5767     5231.00000
    16.5899     5082.00000
    16.6030     5173.00000
    16.6161     5157.00000
    16.6293     5089.00000
    16.6424     5003.00000
    16.6555     5259.00000
    16.6686     5077.00000
    16.6818     4974.00000
    16.6949     5122.00000
    16.7080     5081.00000
    16.7212     5047.00000
    16.7343     5078.00000
    16.7474     5140.00000
    16.7606     5034.00000
    16.7737     4991.00000
    16.7868     4945.00000
    16.8000     5002.00000
    16.8131     5161.00000
    16.8262     4917.00000
    16.8393     5146.00000
    16.8525     4955.00000
    16.8656     4930.00000
    16.8787     4887.00000
    16.8919     4934.00000
    16.9050     4952.00000
    16.9181     5168.00000
    16.9313     4985.00000
    16.9444     4905.00000
    16.9575     5023.00000
    16.9706     4948.00000
    16.9838     4993.00000
    16.9969     4962.00000
    17.0100     4955.00000
    17.0232     5047.00000
    17.0363     5008.00000
    17.0494     5000.00000
    17.0626     4976.00000
    17.0757     4958.00000
    17.0888     4980.00000
    17.1019     4893.00000
    17.1151     4940.00000
    17.1282     4929.00000
    17.1413     5030.00000
    17.1545     4918.00000
    17.1676     5110.00000
    17.1807     4959.00000
    17.1939     4898.00000
    17.2070     4973.00000
    17.2201     4933.00000
    17.2333     5030.00000
    17.2464     5092.00000
    17.2595     5063.00000
    17.2726     5152.00000
    17.2858     5184.00000
    17.2989     5171.00000
    17.3120     5153.00000
    17.3252     5167.00000
    17.3383     5250.00000
    17.3514     4981.00000
    17.3646     5072.00000
    17.3777     4963.00000
    17.3908     5007.00000
    17.4039     5026.00000
    17.4171     4986.00000
    17.4302     4718.00000
    17.4433     4997.00000
    17.4565     4879.00000
    17.4696     4879.00000
    17.4827     4992.00000
    17.4959     4796.00000
    17.5090     4885.00000
    17.5221     4770.00000
    17.5352     4769.00000
    17.5484     4839.00000
    17.5615     4737.00000
    17.5746     4834.00000
    17.5878     4785.00000
    17.6009     4821.00000
    17.6140     4739.00000
    17.6272     4784.00000
    17.6403     4832.00000
    17.6534     4821.00000
    17.6666     4849.00000
    17.6797     4768.00000
    17.6928     4890.00000
    17.7059     4893.00000
    17.7191     4849.00000
    17.7322     4867.00000
    17.7453     4976.00000
    17.7585     4987.00000
    17.7716     5008.00000
    17.7847     5097.00000
    17.7979     5099.00000
    17.8110     5182.00000
    17.8241     5066.00000
    17.8372     5075.00000
    17.8504     5002.00000
    17.8635     4867.00000
    17.8766     4840.00000
    17.8898     4806.00000
    17.9029     4874.00000
    17.9160     4840.00000
    17.9292     4773.00000
    17.9423     4715.00000
    17.9554     4906.00000
    17.9685     4601.00000
    17.9817     4789.00000
    17.9948     4728.00000
    18.0079     4722.00000
    18.0211     4790.00000
    18.0342     4683.00000
    18.0473     4669.00000
    18.0605     4691.00000
    18.0736     4645.00000
    18.0867     4739.00000
    18.0998     4577.00000
    18.1130     4607.00000
    18.1261     4614.00000
    18.1392     4624.00000
    18.1524     4633.00000
    18.1655     4643.00000
    18.1786     4739.00000
    18.1918     4741.00000
    18.2049     4630.00000
    18.2180     4684.00000
    18.2312     4621.00000
    18.2443     4534.00000
    18.2574     4652.00000
    18.2705     4594.00000
    18.2837     4693.00000
    18.2968     4649.00000
    18.3099     4583.00000
    18.3231     4596.00000
    18.3362     4498.00000
    18.3493     4755.00000
    18.3625     4667.00000
    18.3756     4589.00000
    18.3887     4586.00000
    18.4018     4631.00000
    18.4150     4447.00000
    18.4281     4645.00000
    18.4412     4649.00000
    18.4544     4620.00000
    18.4675     4532.00000
    18.4806     4605.00000
    18.4938     4628.00000
    18.5069     4710.00000
    18.5200     4672.00000
    18.5331     4528.00000
    18.5463     4693.00000
    18.5594     4616.00000
    18.5725     4781.00000
    18.5857     4710.00000
    18.5988     4793.00000
    18.6119     4688.00000
    18.6251     4691.00000
    18.6382     4721.00000
    18.6513     4822.00000
    18.6645     4806.00000
    18.6776     4708.00000
    18.6907     4666.00000
    18.7038     4600.00000
    18.7170     4626.00000
    18.7301     4660.00000
    18.7432     4513.00000
    18.7564     4639.00000
    18.7695     4515.00000
    18.7826     4660.00000
    18.7958     4542.00000
    18.8089     4629.00000
    18.8220     4631.00000
    18.8351     4626.00000
    18.8483     4508.00000
    18.8614     4535.00000
    18.8745     4544.00000
    18.8877     4504.00000
    18.9008     4520.00000
    18.9139     4515.00000
    18.9271     4524.00000
    18.9402     4562.00000
    18.9533     4595.00000
