! Initial file:   D:\ZAKARY_OUAIL\MA_THESE\Deuxième_année_de_thèse\DRX\Manips_DRX\1st_NaTaO2F2_XRK900\NaTaO2F2-Lent_60°C.xrdml
! Initial format:  58
! WAVE (A):      1.54060     1.54060     1.00000
! REM : data have been multiplied by     1.0000
! X_data : 2 Theta (deg.)                                                                                                                                                                                                                                                  
! Y_data : Intensity (arb. units)                                                                                                                                                                                                                                          
!     X         Y
!--------------------------------------------------------------------------------
    10.0116     7304.00000
    10.0247     7347.00000
    10.0379     7366.00000
    10.0510     7335.00000
    10.0641     7343.00000
    10.0772     7269.00000
    10.0904     7231.00000
    10.1035     7342.00000
    10.1166     7234.00000
    10.1298     7157.00000
    10.1429     7050.00000
    10.1560     7119.00000
    10.1692     7149.00000
    10.1823     7184.00000
    10.1954     7146.00000
    10.2086     7163.00000
    10.2217     7101.00000
    10.2348     6981.00000
    10.2479     7213.00000
    10.2611     7144.00000
    10.2742     7278.00000
    10.2873     7172.00000
    10.3005     7009.00000
    10.3136     7177.00000
    10.3267     7087.00000
    10.3399     7030.00000
    10.3530     7155.00000
    10.3661     7237.00000
    10.3792     7062.00000
    10.3924     6960.00000
    10.4055     7078.00000
    10.4186     6955.00000
    10.4318     7118.00000
    10.4449     7089.00000
    10.4580     7128.00000
    10.4712     6842.00000
    10.4843     7134.00000
    10.4974     7006.00000
    10.5105     7117.00000
    10.5237     6843.00000
    10.5368     6922.00000
    10.5499     7192.00000
    10.5631     6988.00000
    10.5762     6977.00000
    10.5893     7026.00000
    10.6025     7205.00000
    10.6156     6969.00000
    10.6287     7036.00000
    10.6418     7013.00000
    10.6550     6866.00000
    10.6681     6795.00000
    10.6812     6847.00000
    10.6944     6969.00000
    10.7075     6863.00000
    10.7206     7102.00000
    10.7338     7134.00000
    10.7469     7151.00000
    10.7600     7123.00000
    10.7732     7128.00000
    10.7863     7149.00000
    10.7994     7084.00000
    10.8125     7022.00000
    10.8257     7097.00000
    10.8388     7125.00000
    10.8519     7194.00000
    10.8651     7259.00000
    10.8782     7221.00000
    10.8913     7379.00000
    10.9045     7392.00000
    10.9176     7485.00000
    10.9307     7698.00000
    10.9438     7792.00000
    10.9570     7948.00000
    10.9701     8233.00000
    10.9832     8853.00000
    10.9964     9461.00000
    11.0095    10297.00000
    11.0226    11115.00000
    11.0358    12738.00000
    11.0489    15478.00000
    11.0620    20270.00000
    11.0751    26642.00000
    11.0883    34044.00000
    11.1014    42619.00000
    11.1145    49565.00000
    11.1277    51456.00000
    11.1408    48272.00000
    11.1539    41194.00000
    11.1671    34370.00000
    11.1802    27499.00000
    11.1933    21204.00000
    11.2065    16634.00000
    11.2196    12633.00000
    11.2327    10269.00000
    11.2458     8845.00000
    11.2590     7890.00000
    11.2721     7829.00000
    11.2852     7576.00000
    11.2984     7248.00000
    11.3115     7158.00000
    11.3246     7071.00000
    11.3378     6999.00000
    11.3509     6906.00000
    11.3640     6758.00000
    11.3771     6913.00000
    11.3903     6762.00000
    11.4034     6850.00000
    11.4165     6852.00000
    11.4297     6702.00000
    11.4428     6794.00000
    11.4559     6745.00000
    11.4691     6752.00000
    11.4822     6658.00000
    11.4953     6511.00000
    11.5084     6697.00000
    11.5216     6844.00000
    11.5347     6776.00000
    11.5478     6580.00000
    11.5610     6547.00000
    11.5741     6555.00000
    11.5872     6615.00000
    11.6004     6693.00000
    11.6135     6633.00000
    11.6266     6522.00000
    11.6398     6654.00000
    11.6529     6591.00000
    11.6660     6613.00000
    11.6791     6530.00000
    11.6923     6458.00000
    11.7054     6503.00000
    11.7185     6640.00000
    11.7317     6562.00000
    11.7448     6727.00000
    11.7579     6692.00000
    11.7711     6605.00000
    11.7842     6545.00000
    11.7973     6419.00000
    11.8104     6545.00000
    11.8236     6496.00000
    11.8367     6590.00000
    11.8498     6442.00000
    11.8630     6521.00000
    11.8761     6455.00000
    11.8892     6339.00000
    11.9024     6316.00000
    11.9155     6514.00000
    11.9286     6402.00000
    11.9417     6490.00000
    11.9549     6549.00000
    11.9680     6494.00000
    11.9811     6430.00000
    11.9943     6520.00000
    12.0074     6298.00000
    12.0205     6290.00000
    12.0337     6470.00000
    12.0468     6411.00000
    12.0599     6293.00000
    12.0731     6501.00000
    12.0862     6321.00000
    12.0993     6323.00000
    12.1124     6255.00000
    12.1256     6094.00000
    12.1387     6295.00000
    12.1518     6306.00000
    12.1650     6328.00000
    12.1781     6277.00000
    12.1912     6285.00000
    12.2044     6313.00000
    12.2175     6363.00000
    12.2306     6237.00000
    12.2437     6294.00000
    12.2569     6415.00000
    12.2700     6245.00000
    12.2831     6270.00000
    12.2963     6224.00000
    12.3094     6318.00000
    12.3225     6170.00000
    12.3357     6254.00000
    12.3488     6110.00000
    12.3619     6252.00000
    12.3750     6261.00000
    12.3882     6232.00000
    12.4013     6227.00000
    12.4144     6137.00000
    12.4276     6178.00000
    12.4407     6225.00000
    12.4538     6104.00000
    12.4670     6091.00000
    12.4801     6223.00000
    12.4932     6284.00000
    12.5063     6144.00000
    12.5195     6201.00000
    12.5326     6156.00000
    12.5457     6217.00000
    12.5589     6100.00000
    12.5720     6119.00000
    12.5851     6291.00000
    12.5983     6229.00000
    12.6114     6001.00000
    12.6245     6130.00000
    12.6377     6175.00000
    12.6508     6196.00000
    12.6639     6088.00000
    12.6770     6074.00000
    12.6902     6073.00000
    12.7033     6204.00000
    12.7164     6049.00000
    12.7296     6144.00000
    12.7427     6013.00000
    12.7558     6099.00000
    12.7690     6120.00000
    12.7821     6047.00000
    12.7952     5999.00000
    12.8083     6141.00000
    12.8215     6056.00000
    12.8346     6055.00000
    12.8477     6112.00000
    12.8609     6072.00000
    12.8740     6080.00000
    12.8871     5983.00000
    12.9003     6018.00000
    12.9134     6002.00000
    12.9265     6041.00000
    12.9396     6059.00000
    12.9528     5862.00000
    12.9659     6006.00000
    12.9790     5974.00000
    12.9922     5972.00000
    13.0053     5955.00000
    13.0184     6006.00000
    13.0316     6019.00000
    13.0447     5762.00000
    13.0578     5905.00000
    13.0710     5952.00000
    13.0841     5991.00000
    13.0972     5997.00000
    13.1103     6007.00000
    13.1235     5941.00000
    13.1366     6031.00000
    13.1497     6030.00000
    13.1629     5881.00000
    13.1760     5991.00000
    13.1891     5916.00000
    13.2023     5981.00000
    13.2154     5946.00000
    13.2285     5968.00000
    13.2416     5937.00000
    13.2548     5948.00000
    13.2679     5876.00000
    13.2810     6029.00000
    13.2942     5861.00000
    13.3073     5936.00000
    13.3204     5799.00000
    13.3336     5876.00000
    13.3467     5843.00000
    13.3598     5962.00000
    13.3729     5909.00000
    13.3861     5900.00000
    13.3992     5874.00000
    13.4123     5895.00000
    13.4255     5889.00000
    13.4386     5879.00000
    13.4517     5823.00000
    13.4649     5834.00000
    13.4780     5881.00000
    13.4911     5899.00000
    13.5043     5839.00000
    13.5174     5810.00000
    13.5305     5751.00000
    13.5436     5688.00000
    13.5568     5808.00000
    13.5699     5868.00000
    13.5830     5875.00000
    13.5962     5622.00000
    13.6093     5701.00000
    13.6224     5756.00000
    13.6356     5884.00000
    13.6487     5769.00000
    13.6618     5786.00000
    13.6749     5707.00000
    13.6881     5694.00000
    13.7012     5638.00000
    13.7143     5751.00000
    13.7275     5677.00000
    13.7406     5716.00000
    13.7537     5724.00000
    13.7669     5688.00000
    13.7800     5694.00000
    13.7931     5598.00000
    13.8062     5622.00000
    13.8194     5705.00000
    13.8325     5723.00000
    13.8456     5688.00000
    13.8588     5670.00000
    13.8719     5599.00000
    13.8850     5664.00000
    13.8982     5649.00000
    13.9113     5542.00000
    13.9244     5466.00000
    13.9376     5544.00000
    13.9507     5648.00000
    13.9638     5701.00000
    13.9769     5689.00000
    13.9901     5785.00000
    14.0032     5593.00000
    14.0163     5658.00000
    14.0295     5576.00000
    14.0426     5539.00000
    14.0557     5581.00000
    14.0689     5600.00000
    14.0820     5456.00000
    14.0951     5582.00000
    14.1082     5597.00000
    14.1214     5672.00000
    14.1345     5636.00000
    14.1476     5726.00000
    14.1608     5514.00000
    14.1739     5438.00000
    14.1870     5543.00000
    14.2002     5558.00000
    14.2133     5528.00000
    14.2264     5584.00000
    14.2395     5733.00000
    14.2527     5530.00000
    14.2658     5538.00000
    14.2789     5650.00000
    14.2921     5405.00000
    14.3052     5482.00000
    14.3183     5609.00000
    14.3315     5564.00000
    14.3446     5443.00000
    14.3577     5481.00000
    14.3708     5399.00000
    14.3840     5457.00000
    14.3971     5501.00000
    14.4102     5596.00000
    14.4234     5502.00000
    14.4365     5490.00000
    14.4496     5413.00000
    14.4628     5438.00000
    14.4759     5614.00000
    14.4890     5468.00000
    14.5022     5562.00000
    14.5153     5490.00000
    14.5284     5447.00000
    14.5415     5517.00000
    14.5547     5490.00000
    14.5678     5317.00000
    14.5809     5427.00000
    14.5941     5438.00000
    14.6072     5522.00000
    14.6203     5404.00000
    14.6335     5478.00000
    14.6466     5354.00000
    14.6597     5360.00000
    14.6728     5438.00000
    14.6860     5414.00000
    14.6991     5395.00000
    14.7122     5389.00000
    14.7254     5337.00000
    14.7385     5542.00000
    14.7516     5360.00000
    14.7648     5449.00000
    14.7779     5433.00000
    14.7910     5328.00000
    14.8041     5417.00000
    14.8173     5504.00000
    14.8304     5414.00000
    14.8435     5324.00000
    14.8567     5286.00000
    14.8698     5448.00000
    14.8829     5260.00000
    14.8961     5387.00000
    14.9092     5567.00000
    14.9223     5488.00000
    14.9355     5348.00000
    14.9486     5234.00000
    14.9617     5357.00000
    14.9748     5460.00000
    14.9880     5261.00000
    15.0011     5385.00000
    15.0142     5402.00000
    15.0274     5380.00000
    15.0405     5432.00000
    15.0536     5317.00000
    15.0668     5256.00000
    15.0799     5447.00000
    15.0930     5298.00000
    15.1061     5329.00000
    15.1193     5206.00000
    15.1324     5383.00000
    15.1455     5227.00000
    15.1587     5328.00000
    15.1718     5279.00000
    15.1849     5425.00000
    15.1981     5478.00000
    15.2112     5252.00000
    15.2243     5190.00000
    15.2374     5214.00000
    15.2506     5317.00000
    15.2637     5442.00000
    15.2768     5288.00000
    15.2900     5218.00000
    15.3031     5339.00000
    15.3162     5195.00000
    15.3294     5217.00000
    15.3425     5200.00000
    15.3556     5281.00000
    15.3688     5204.00000
    15.3819     5154.00000
    15.3950     5114.00000
    15.4081     5164.00000
    15.4213     5070.00000
    15.4344     5279.00000
    15.4475     5291.00000
    15.4607     5280.00000
    15.4738     5255.00000
    15.4869     5314.00000
    15.5001     5238.00000
    15.5132     5073.00000
    15.5263     5197.00000
    15.5394     5254.00000
    15.5526     5056.00000
    15.5657     5278.00000
    15.5788     5214.00000
    15.5920     5184.00000
    15.6051     5074.00000
    15.6182     5207.00000
    15.6314     5174.00000
    15.6445     5237.00000
    15.6576     5199.00000
    15.6707     5241.00000
    15.6839     5173.00000
    15.6970     5190.00000
    15.7101     5123.00000
    15.7233     5224.00000
    15.7364     5260.00000
    15.7495     5073.00000
    15.7627     5162.00000
    15.7758     5203.00000
    15.7889     5192.00000
    15.8021     5200.00000
    15.8152     5164.00000
    15.8283     5165.00000
    15.8414     5131.00000
    15.8546     5160.00000
    15.8677     5124.00000
    15.8808     5175.00000
    15.8940     5103.00000
    15.9071     5192.00000
    15.9202     5168.00000
    15.9334     5091.00000
    15.9465     5242.00000
    15.9596     5155.00000
    15.9727     5137.00000
    15.9859     5135.00000
    15.9990     5144.00000
    16.0121     5245.00000
    16.0253     5094.00000
    16.0384     5198.00000
    16.0515     5154.00000
    16.0647     5070.00000
    16.0778     5170.00000
    16.0909     5128.00000
    16.1040     5163.00000
    16.1172     5112.00000
    16.1303     5170.00000
    16.1434     5151.00000
    16.1566     5222.00000
    16.1697     5139.00000
    16.1828     5254.00000
    16.1960     5332.00000
    16.2091     5332.00000
    16.2222     5275.00000
    16.2353     5289.00000
    16.2485     5261.00000
    16.2616     5268.00000
    16.2747     5220.00000
    16.2879     5167.00000
    16.3010     5268.00000
    16.3141     5309.00000
    16.3273     5297.00000
    16.3404     5276.00000
    16.3535     5213.00000
    16.3667     5210.00000
    16.3798     5232.00000
    16.3929     5288.00000
    16.4060     5250.00000
    16.4192     5286.00000
    16.4323     5372.00000
    16.4454     5308.00000
    16.4586     5301.00000
    16.4717     5325.00000
    16.4848     5384.00000
    16.4980     5318.00000
    16.5111     5239.00000
    16.5242     5201.00000
    16.5373     5032.00000
    16.5505     5003.00000
    16.5636     5181.00000
    16.5767     5117.00000
    16.5899     5172.00000
    16.6030     5029.00000
    16.6161     5133.00000
    16.6293     5051.00000
    16.6424     5061.00000
    16.6555     4884.00000
    16.6686     4892.00000
    16.6818     4917.00000
    16.6949     4992.00000
    16.7080     5023.00000
    16.7212     4920.00000
    16.7343     5058.00000
    16.7474     5037.00000
    16.7606     4976.00000
    16.7737     5036.00000
    16.7868     4933.00000
    16.8000     4931.00000
    16.8131     5047.00000
    16.8262     4922.00000
    16.8393     4990.00000
    16.8525     4976.00000
    16.8656     5001.00000
    16.8787     5124.00000
    16.8919     5022.00000
    16.9050     4931.00000
    16.9181     4941.00000
    16.9313     5002.00000
    16.9444     5006.00000
    16.9575     4830.00000
    16.9706     4904.00000
    16.9838     4840.00000
    16.9969     4959.00000
    17.0100     4805.00000
    17.0232     4718.00000
    17.0363     4905.00000
    17.0494     4943.00000
    17.0626     5007.00000
    17.0757     4908.00000
    17.0888     4998.00000
    17.1019     4931.00000
    17.1151     4915.00000
    17.1282     4889.00000
    17.1413     4857.00000
    17.1545     4898.00000
    17.1676     4820.00000
    17.1807     4822.00000
    17.1939     5057.00000
    17.2070     4855.00000
    17.2201     4952.00000
    17.2333     4938.00000
    17.2464     5007.00000
    17.2595     5089.00000
    17.2726     5211.00000
    17.2858     4963.00000
    17.2989     5057.00000
    17.3120     4986.00000
    17.3252     5218.00000
    17.3383     4989.00000
    17.3514     4994.00000
    17.3646     4977.00000
    17.3777     5030.00000
    17.3908     4853.00000
    17.4039     4893.00000
    17.4171     4861.00000
    17.4302     4934.00000
    17.4433     4695.00000
    17.4565     4813.00000
    17.4696     4812.00000
    17.4827     4833.00000
    17.4959     4742.00000
    17.5090     4859.00000
    17.5221     4776.00000
    17.5352     4787.00000
    17.5484     4707.00000
    17.5615     4774.00000
    17.5746     4800.00000
    17.5878     4774.00000
    17.6009     4769.00000
    17.6140     4805.00000
    17.6272     4786.00000
    17.6403     4886.00000
    17.6534     4757.00000
    17.6666     4794.00000
    17.6797     4743.00000
    17.6928     4818.00000
    17.7059     4803.00000
    17.7191     4773.00000
    17.7322     4804.00000
    17.7453     4763.00000
    17.7585     4800.00000
    17.7716     4898.00000
    17.7847     4862.00000
    17.7979     5050.00000
    17.8110     4974.00000
    17.8241     5013.00000
    17.8372     5013.00000
    17.8504     4861.00000
    17.8635     4858.00000
    17.8766     4724.00000
    17.8898     4812.00000
    17.9029     4760.00000
    17.9160     4760.00000
    17.9292     4648.00000
    17.9423     4540.00000
    17.9554     4610.00000
    17.9685     4624.00000
    17.9817     4811.00000
    17.9948     4744.00000
    18.0079     4675.00000
    18.0211     4701.00000
    18.0342     4607.00000
    18.0473     4675.00000
    18.0605     4641.00000
    18.0736     4536.00000
    18.0867     4631.00000
    18.0998     4698.00000
    18.1130     4615.00000
    18.1261     4610.00000
    18.1392     4632.00000
    18.1524     4604.00000
    18.1655     4672.00000
    18.1786     4664.00000
    18.1918     4519.00000
    18.2049     4590.00000
    18.2180     4578.00000
    18.2312     4647.00000
    18.2443     4507.00000
    18.2574     4560.00000
    18.2705     4480.00000
    18.2837     4516.00000
    18.2968     4537.00000
    18.3099     4607.00000
    18.3231     4628.00000
    18.3362     4479.00000
    18.3493     4531.00000
    18.3625     4660.00000
    18.3756     4670.00000
    18.3887     4397.00000
    18.4018     4507.00000
    18.4150     4525.00000
    18.4281     4687.00000
    18.4412     4563.00000
    18.4544     4532.00000
    18.4675     4434.00000
    18.4806     4480.00000
    18.4938     4555.00000
    18.5069     4501.00000
    18.5200     4608.00000
    18.5331     4675.00000
    18.5463     4604.00000
    18.5594     4537.00000
    18.5725     4503.00000
    18.5857     4613.00000
    18.5988     4661.00000
    18.6119     4828.00000
    18.6251     4559.00000
    18.6382     4658.00000
    18.6513     4631.00000
    18.6645     4730.00000
    18.6776     4663.00000
    18.6907     4695.00000
    18.7038     4661.00000
    18.7170     4544.00000
    18.7301     4538.00000
    18.7432     4560.00000
    18.7564     4552.00000
    18.7695     4627.00000
    18.7826     4553.00000
    18.7958     4448.00000
    18.8089     4399.00000
    18.8220     4424.00000
    18.8351     4541.00000
    18.8483     4439.00000
    18.8614     4370.00000
    18.8745     4499.00000
    18.8877     4335.00000
    18.9008     4424.00000
    18.9139     4438.00000
    18.9271     4455.00000
    18.9402     4358.00000
    18.9533     4463.00000
