! Initial file:   D:\ZAKARY_OUAIL\MA_THESE\Deuxième_année_de_thèse\DRX\Manips_DRX\1st_NaTaO2F2_XRK900\NaTaO2F2-Lent_80°C.xrdml
! Initial format:  58
! WAVE (A):      1.54060     1.54060     1.00000
! REM : data have been multiplied by     1.0000
! X_data : 2 Theta (deg.)                                                                                                                                                                                                                                                  
! Y_data : Intensity (arb. units)                                                                                                                                                                                                                                          
!     X         Y
!--------------------------------------------------------------------------------
    10.0116     7130.00000
    10.0247     7101.00000
    10.0379     7258.00000
    10.0510     7198.00000
    10.0641     6955.00000
    10.0772     7171.00000
    10.0904     7130.00000
    10.1035     7158.00000
    10.1166     7179.00000
    10.1298     7185.00000
    10.1429     7212.00000
    10.1560     6865.00000
    10.1692     7139.00000
    10.1823     7087.00000
    10.1954     7105.00000
    10.2086     7076.00000
    10.2217     7148.00000
    10.2348     7176.00000
    10.2479     6986.00000
    10.2611     7027.00000
    10.2742     7014.00000
    10.2873     7043.00000
    10.3005     7125.00000
    10.3136     7063.00000
    10.3267     6858.00000
    10.3399     6859.00000
    10.3530     6831.00000
    10.3661     7010.00000
    10.3792     6906.00000
    10.3924     6966.00000
    10.4055     6929.00000
    10.4186     6952.00000
    10.4318     6866.00000
    10.4449     6900.00000
    10.4580     6842.00000
    10.4712     6906.00000
    10.4843     6943.00000
    10.4974     6948.00000
    10.5105     6880.00000
    10.5237     6847.00000
    10.5368     6780.00000
    10.5499     7008.00000
    10.5631     6805.00000
    10.5762     6818.00000
    10.5893     6759.00000
    10.6025     6977.00000
    10.6156     6882.00000
    10.6287     6752.00000
    10.6418     6816.00000
    10.6550     6796.00000
    10.6681     6909.00000
    10.6812     6925.00000
    10.6944     6813.00000
    10.7075     6932.00000
    10.7206     6797.00000
    10.7338     6818.00000
    10.7469     6946.00000
    10.7600     7165.00000
    10.7732     7157.00000
    10.7863     7039.00000
    10.7994     7145.00000
    10.8125     6999.00000
    10.8257     7042.00000
    10.8388     7139.00000
    10.8519     7332.00000
    10.8651     7103.00000
    10.8782     7210.00000
    10.8913     7119.00000
    10.9045     7398.00000
    10.9176     7552.00000
    10.9307     7509.00000
    10.9438     7742.00000
    10.9570     7967.00000
    10.9701     8322.00000
    10.9832     8778.00000
    10.9964     9425.00000
    11.0095    10228.00000
    11.0226    11462.00000
    11.0358    12838.00000
    11.0489    15823.00000
    11.0620    20591.00000
    11.0751    26854.00000
    11.0883    34209.00000
    11.1014    43361.00000
    11.1145    50454.00000
    11.1277    52223.00000
    11.1408    49349.00000
    11.1539    42157.00000
    11.1671    34449.00000
    11.1802    27332.00000
    11.1933    21133.00000
    11.2065    16264.00000
    11.2196    12620.00000
    11.2327    10302.00000
    11.2458     8767.00000
    11.2590     7946.00000
    11.2721     7819.00000
    11.2852     7443.00000
    11.2984     7217.00000
    11.3115     7033.00000
    11.3246     7068.00000
    11.3378     7043.00000
    11.3509     6946.00000
    11.3640     6788.00000
    11.3771     6895.00000
    11.3903     6694.00000
    11.4034     6825.00000
    11.4165     6618.00000
    11.4297     6736.00000
    11.4428     6717.00000
    11.4559     6608.00000
    11.4691     6628.00000
    11.4822     6682.00000
    11.4953     6485.00000
    11.5084     6425.00000
    11.5216     6592.00000
    11.5347     6509.00000
    11.5478     6582.00000
    11.5610     6577.00000
    11.5741     6564.00000
    11.5872     6477.00000
    11.6004     6571.00000
    11.6135     6563.00000
    11.6266     6556.00000
    11.6398     6488.00000
    11.6529     6430.00000
    11.6660     6512.00000
    11.6791     6388.00000
    11.6923     6532.00000
    11.7054     6492.00000
    11.7185     6579.00000
    11.7317     6510.00000
    11.7448     6339.00000
    11.7579     6262.00000
    11.7711     6506.00000
    11.7842     6538.00000
    11.7973     6526.00000
    11.8104     6368.00000
    11.8236     6330.00000
    11.8367     6260.00000
    11.8498     6362.00000
    11.8630     6451.00000
    11.8761     6476.00000
    11.8892     6350.00000
    11.9024     6414.00000
    11.9155     6327.00000
    11.9286     6526.00000
    11.9417     6297.00000
    11.9549     6295.00000
    11.9680     6282.00000
    11.9811     6254.00000
    11.9943     6356.00000
    12.0074     6255.00000
    12.0205     6210.00000
    12.0337     6244.00000
    12.0468     6163.00000
    12.0599     6148.00000
    12.0731     6315.00000
    12.0862     6405.00000
    12.0993     6238.00000
    12.1124     6140.00000
    12.1256     6258.00000
    12.1387     6260.00000
    12.1518     6305.00000
    12.1650     6326.00000
    12.1781     6115.00000
    12.1912     6120.00000
    12.2044     6190.00000
    12.2175     6202.00000
    12.2306     6066.00000
    12.2437     6216.00000
    12.2569     6238.00000
    12.2700     6131.00000
    12.2831     6267.00000
    12.2963     6160.00000
    12.3094     6168.00000
    12.3225     6182.00000
    12.3357     6326.00000
    12.3488     6131.00000
    12.3619     6176.00000
    12.3750     6189.00000
    12.3882     6258.00000
    12.4013     6216.00000
    12.4144     6122.00000
    12.4276     6137.00000
    12.4407     6145.00000
    12.4538     5985.00000
    12.4670     6113.00000
    12.4801     6100.00000
    12.4932     6044.00000
    12.5063     6080.00000
    12.5195     6165.00000
    12.5326     6181.00000
    12.5457     5990.00000
    12.5589     6049.00000
    12.5720     6110.00000
    12.5851     6010.00000
    12.5983     5974.00000
    12.6114     5919.00000
    12.6245     6064.00000
    12.6377     6041.00000
    12.6508     6004.00000
    12.6639     5843.00000
    12.6770     5900.00000
    12.6902     5953.00000
    12.7033     5877.00000
    12.7164     5920.00000
    12.7296     5921.00000
    12.7427     5926.00000
    12.7558     6013.00000
    12.7690     6098.00000
    12.7821     6135.00000
    12.7952     6000.00000
    12.8083     6144.00000
    12.8215     5913.00000
    12.8346     6019.00000
    12.8477     6046.00000
    12.8609     6039.00000
    12.8740     5914.00000
    12.8871     5948.00000
    12.9003     5999.00000
    12.9134     6046.00000
    12.9265     5859.00000
    12.9396     6007.00000
    12.9528     6004.00000
    12.9659     6020.00000
    12.9790     5949.00000
    12.9922     5748.00000
    13.0053     5832.00000
    13.0184     5841.00000
    13.0316     5856.00000
    13.0447     5790.00000
    13.0578     5912.00000
    13.0710     5837.00000
    13.0841     5866.00000
    13.0972     5868.00000
    13.1103     5936.00000
    13.1235     5906.00000
    13.1366     5961.00000
    13.1497     6007.00000
    13.1629     5929.00000
    13.1760     6102.00000
    13.1891     5822.00000
    13.2023     5774.00000
    13.2154     5767.00000
    13.2285     5722.00000
    13.2416     5947.00000
    13.2548     5705.00000
    13.2679     5900.00000
    13.2810     5783.00000
    13.2942     5880.00000
    13.3073     5810.00000
    13.3204     5833.00000
    13.3336     5789.00000
    13.3467     5766.00000
    13.3598     5844.00000
    13.3729     5704.00000
    13.3861     5844.00000
    13.3992     5726.00000
    13.4123     5729.00000
    13.4255     5711.00000
    13.4386     5724.00000
    13.4517     5651.00000
    13.4649     5699.00000
    13.4780     5828.00000
    13.4911     5818.00000
    13.5043     5822.00000
    13.5174     5731.00000
    13.5305     5692.00000
    13.5436     5675.00000
    13.5568     5713.00000
    13.5699     5668.00000
    13.5830     5680.00000
    13.5962     5673.00000
    13.6093     5653.00000
    13.6224     5579.00000
    13.6356     5643.00000
    13.6487     5708.00000
    13.6618     5669.00000
    13.6749     5672.00000
    13.6881     5584.00000
    13.7012     5616.00000
    13.7143     5703.00000
    13.7275     5567.00000
    13.7406     5601.00000
    13.7537     5684.00000
    13.7669     5604.00000
    13.7800     5606.00000
    13.7931     5539.00000
    13.8062     5469.00000
    13.8194     5594.00000
    13.8325     5605.00000
    13.8456     5424.00000
    13.8588     5623.00000
    13.8719     5501.00000
    13.8850     5685.00000
    13.8982     5484.00000
    13.9113     5660.00000
    13.9244     5498.00000
    13.9376     5607.00000
    13.9507     5573.00000
    13.9638     5596.00000
    13.9769     5570.00000
    13.9901     5568.00000
    14.0032     5587.00000
    14.0163     5620.00000
    14.0295     5661.00000
    14.0426     5489.00000
    14.0557     5449.00000
    14.0689     5466.00000
    14.0820     5621.00000
    14.0951     5501.00000
    14.1082     5543.00000
    14.1214     5444.00000
    14.1345     5468.00000
    14.1476     5530.00000
    14.1608     5425.00000
    14.1739     5459.00000
    14.1870     5524.00000
    14.2002     5511.00000
    14.2133     5495.00000
    14.2264     5471.00000
    14.2395     5491.00000
    14.2527     5498.00000
    14.2658     5471.00000
    14.2789     5446.00000
    14.2921     5513.00000
    14.3052     5444.00000
    14.3183     5359.00000
    14.3315     5501.00000
    14.3446     5375.00000
    14.3577     5428.00000
    14.3708     5455.00000
    14.3840     5511.00000
    14.3971     5529.00000
    14.4102     5265.00000
    14.4234     5452.00000
    14.4365     5420.00000
    14.4496     5472.00000
    14.4628     5484.00000
    14.4759     5442.00000
    14.4890     5390.00000
    14.5022     5433.00000
    14.5153     5289.00000
    14.5284     5313.00000
    14.5415     5384.00000
    14.5547     5337.00000
    14.5678     5304.00000
    14.5809     5480.00000
    14.5941     5248.00000
    14.6072     5300.00000
    14.6203     5338.00000
    14.6335     5471.00000
    14.6466     5296.00000
    14.6597     5301.00000
    14.6728     5557.00000
    14.6860     5350.00000
    14.6991     5190.00000
    14.7122     5269.00000
    14.7254     5289.00000
    14.7385     5377.00000
    14.7516     5323.00000
    14.7648     5344.00000
    14.7779     5351.00000
    14.7910     5380.00000
    14.8041     5367.00000
    14.8173     5360.00000
    14.8304     5226.00000
    14.8435     5202.00000
    14.8567     5362.00000
    14.8698     5380.00000
    14.8829     5364.00000
    14.8961     5225.00000
    14.9092     5244.00000
    14.9223     5284.00000
    14.9355     5252.00000
    14.9486     5198.00000
    14.9617     5298.00000
    14.9748     5441.00000
    14.9880     5376.00000
    15.0011     5266.00000
    15.0142     5339.00000
    15.0274     5240.00000
    15.0405     5244.00000
    15.0536     5201.00000
    15.0668     5418.00000
    15.0799     5257.00000
    15.0930     5266.00000
    15.1061     5231.00000
    15.1193     5238.00000
    15.1324     5153.00000
    15.1455     5229.00000
    15.1587     5238.00000
    15.1718     5226.00000
    15.1849     5183.00000
    15.1981     5238.00000
    15.2112     5267.00000
    15.2243     5280.00000
    15.2374     5234.00000
    15.2506     5225.00000
    15.2637     5207.00000
    15.2768     5214.00000
    15.2900     5088.00000
    15.3031     5150.00000
    15.3162     5153.00000
    15.3294     5152.00000
    15.3425     5146.00000
    15.3556     5187.00000
    15.3688     5186.00000
    15.3819     5130.00000
    15.3950     5245.00000
    15.4081     4986.00000
    15.4213     5148.00000
    15.4344     5031.00000
    15.4475     5191.00000
    15.4607     5148.00000
    15.4738     5163.00000
    15.4869     5114.00000
    15.5001     5229.00000
    15.5132     5231.00000
    15.5263     5227.00000
    15.5394     5247.00000
    15.5526     5253.00000
    15.5657     5163.00000
    15.5788     5034.00000
    15.5920     5142.00000
    15.6051     5099.00000
    15.6182     5106.00000
    15.6314     5103.00000
    15.6445     5193.00000
    15.6576     5222.00000
    15.6707     5099.00000
    15.6839     5116.00000
    15.6970     5083.00000
    15.7101     5153.00000
    15.7233     5049.00000
    15.7364     5157.00000
    15.7495     5241.00000
    15.7627     5121.00000
    15.7758     4959.00000
    15.7889     5127.00000
    15.8021     5048.00000
    15.8152     4937.00000
    15.8283     5154.00000
    15.8414     4943.00000
    15.8546     5053.00000
    15.8677     5008.00000
    15.8808     5098.00000
    15.8940     5065.00000
    15.9071     5162.00000
    15.9202     5163.00000
    15.9334     5093.00000
    15.9465     5066.00000
    15.9596     4995.00000
    15.9727     5016.00000
    15.9859     5224.00000
    15.9990     5036.00000
    16.0121     4998.00000
    16.0253     4993.00000
    16.0384     4980.00000
    16.0515     5092.00000
    16.0647     5110.00000
    16.0778     4992.00000
    16.0909     5004.00000
    16.1040     5009.00000
    16.1172     5039.00000
    16.1303     5017.00000
    16.1434     5010.00000
    16.1566     5135.00000
    16.1697     5046.00000
    16.1828     5136.00000
    16.1960     5113.00000
    16.2091     5273.00000
    16.2222     5265.00000
    16.2353     5202.00000
    16.2485     5354.00000
    16.2616     5153.00000
    16.2747     5123.00000
    16.2879     5015.00000
    16.3010     5218.00000
    16.3141     5118.00000
    16.3273     5142.00000
    16.3404     5184.00000
    16.3535     5133.00000
    16.3667     5166.00000
    16.3798     5296.00000
    16.3929     5195.00000
    16.4060     5373.00000
    16.4192     5182.00000
    16.4323     5118.00000
    16.4454     5378.00000
    16.4586     5304.00000
    16.4717     5118.00000
    16.4848     5251.00000
    16.4980     5245.00000
    16.5111     5137.00000
    16.5242     5215.00000
    16.5373     5048.00000
    16.5505     4943.00000
    16.5636     5153.00000
    16.5767     4943.00000
    16.5899     4962.00000
    16.6030     5007.00000
    16.6161     4933.00000
    16.6293     4999.00000
    16.6424     4894.00000
    16.6555     4813.00000
    16.6686     4994.00000
    16.6818     4904.00000
    16.6949     4898.00000
    16.7080     4953.00000
    16.7212     4923.00000
    16.7343     4952.00000
    16.7474     5068.00000
    16.7606     4866.00000
    16.7737     4826.00000
    16.7868     4815.00000
    16.8000     4910.00000
    16.8131     4680.00000
    16.8262     4781.00000
    16.8393     4911.00000
    16.8525     4947.00000
    16.8656     4857.00000
    16.8787     4878.00000
    16.8919     4827.00000
    16.9050     4882.00000
    16.9181     4975.00000
    16.9313     4765.00000
    16.9444     4815.00000
    16.9575     4904.00000
    16.9706     4917.00000
    16.9838     4704.00000
    16.9969     4806.00000
    17.0100     4771.00000
    17.0232     4789.00000
    17.0363     4831.00000
    17.0494     4880.00000
    17.0626     4844.00000
    17.0757     4826.00000
    17.0888     4665.00000
    17.1019     4902.00000
    17.1151     4769.00000
    17.1282     4826.00000
    17.1413     4804.00000
    17.1545     4849.00000
    17.1676     4820.00000
    17.1807     4919.00000
    17.1939     4916.00000
    17.2070     4995.00000
    17.2201     4878.00000
    17.2333     4855.00000
    17.2464     4997.00000
    17.2595     5049.00000
    17.2726     4997.00000
    17.2858     5019.00000
    17.2989     5117.00000
    17.3120     4981.00000
    17.3252     4928.00000
    17.3383     4999.00000
    17.3514     4972.00000
    17.3646     4888.00000
    17.3777     4859.00000
    17.3908     4925.00000
    17.4039     4729.00000
    17.4171     4684.00000
    17.4302     4790.00000
    17.4433     4696.00000
    17.4565     4788.00000
    17.4696     4743.00000
    17.4827     4887.00000
    17.4959     4671.00000
    17.5090     4664.00000
    17.5221     4569.00000
    17.5352     4726.00000
    17.5484     4727.00000
    17.5615     4663.00000
    17.5746     4797.00000
    17.5878     4602.00000
    17.6009     4710.00000
    17.6140     4677.00000
    17.6272     4744.00000
    17.6403     4724.00000
    17.6534     4816.00000
    17.6666     4696.00000
    17.6797     4732.00000
    17.6928     4767.00000
    17.7059     4716.00000
    17.7191     4642.00000
    17.7322     4689.00000
    17.7453     4874.00000
    17.7585     4785.00000
    17.7716     4989.00000
    17.7847     5054.00000
    17.7979     4899.00000
    17.8110     5147.00000
    17.8241     5088.00000
    17.8372     4899.00000
    17.8504     4703.00000
    17.8635     4669.00000
    17.8766     4679.00000
    17.8898     4785.00000
    17.9029     4777.00000
    17.9160     4603.00000
    17.9292     4632.00000
    17.9423     4707.00000
    17.9554     4699.00000
    17.9685     4608.00000
    17.9817     4564.00000
    17.9948     4571.00000
    18.0079     4521.00000
    18.0211     4551.00000
    18.0342     4572.00000
    18.0473     4581.00000
    18.0605     4515.00000
    18.0736     4504.00000
    18.0867     4550.00000
    18.0998     4456.00000
    18.1130     4604.00000
    18.1261     4497.00000
    18.1392     4660.00000
    18.1524     4760.00000
    18.1655     4568.00000
    18.1786     4455.00000
    18.1918     4509.00000
    18.2049     4606.00000
    18.2180     4487.00000
    18.2312     4598.00000
    18.2443     4562.00000
    18.2574     4561.00000
    18.2705     4617.00000
    18.2837     4526.00000
    18.2968     4640.00000
    18.3099     4578.00000
    18.3231     4543.00000
    18.3362     4498.00000
    18.3493     4560.00000
    18.3625     4594.00000
    18.3756     4603.00000
    18.3887     4452.00000
    18.4018     4465.00000
    18.4150     4521.00000
    18.4281     4539.00000
    18.4412     4521.00000
    18.4544     4468.00000
    18.4675     4455.00000
    18.4806     4424.00000
    18.4938     4469.00000
    18.5069     4404.00000
    18.5200     4515.00000
    18.5331     4402.00000
    18.5463     4501.00000
    18.5594     4597.00000
    18.5725     4569.00000
    18.5857     4722.00000
    18.5988     4597.00000
    18.6119     4572.00000
    18.6251     4745.00000
    18.6382     4591.00000
    18.6513     4615.00000
    18.6645     4622.00000
    18.6776     4626.00000
    18.6907     4737.00000
    18.7038     4561.00000
    18.7170     4534.00000
    18.7301     4406.00000
    18.7432     4371.00000
    18.7564     4415.00000
    18.7695     4466.00000
    18.7826     4425.00000
    18.7958     4342.00000
    18.8089     4352.00000
    18.8220     4570.00000
    18.8351     4252.00000
    18.8483     4294.00000
    18.8614     4426.00000
    18.8745     4510.00000
    18.8877     4403.00000
    18.9008     4357.00000
    18.9139     4366.00000
    18.9271     4445.00000
    18.9402     4389.00000
    18.9533     4390.00000
