! Initial file:   D:\ZAKARY_OUAIL\MA_THESE\Deuxième_année_de_thèse\DRX\Affinement_DRX\Fullprof\Thermodiff3-nuit_NaNbO2F2\100°C\NaNbO2F2-Lent_100°C - Copie.xrdml
! Initial format:  58
! WAVE (A):      1.54060     1.54060     1.00000
! REM : data have been multiplied by     1.0000
! X_data : 2 Theta (deg.)                                                                                                                                                                                                                                                  
! Y_data : Intensity (arb. units)                                                                                                                                                                                                                                          
!     X         Y
!--------------------------------------------------------------------------------
    10.0116     7952.00000
    10.0247     7879.00000
    10.0379     8049.00000
    10.0510     7877.00000
    10.0641     7906.00000
    10.0772     7897.00000
    10.0904     8172.00000
    10.1035     8029.00000
    10.1166     7971.00000
    10.1298     8086.00000
    10.1429     8238.00000
    10.1560     8206.00000
    10.1692     8281.00000
    10.1823     8474.00000
    10.1954     8331.00000
    10.2086     8067.00000
    10.2217     8175.00000
    10.2348     8130.00000
    10.2479     8101.00000
    10.2611     7954.00000
    10.2742     8187.00000
    10.2873     8132.00000
    10.3005     7881.00000
    10.3136     8152.00000
    10.3267     8205.00000
    10.3399     8007.00000
    10.3530     8032.00000
    10.3661     7871.00000
    10.3792     7982.00000
    10.3924     8016.00000
    10.4055     8196.00000
    10.4186     8143.00000
    10.4318     7982.00000
    10.4449     8147.00000
    10.4580     7844.00000
    10.4712     7989.00000
    10.4843     7934.00000
    10.4974     7944.00000
    10.5105     7983.00000
    10.5237     8057.00000
    10.5368     8103.00000
    10.5499     8033.00000
    10.5631     8087.00000
    10.5762     8060.00000
    10.5893     8104.00000
    10.6025     7965.00000
    10.6156     7961.00000
    10.6287     7975.00000
    10.6418     7980.00000
    10.6550     7988.00000
    10.6681     8043.00000
    10.6812     8080.00000
    10.6944     7983.00000
    10.7075     7813.00000
    10.7206     8095.00000
    10.7338     8053.00000
    10.7469     8044.00000
    10.7600     8139.00000
    10.7732     8046.00000
    10.7863     8002.00000
    10.7994     7863.00000
    10.8125     7918.00000
    10.8257     8034.00000
    10.8388     8193.00000
    10.8519     8075.00000
    10.8651     8285.00000
    10.8782     8528.00000
    10.8913     8321.00000
    10.9045     8286.00000
    10.9176     8343.00000
    10.9307     8395.00000
    10.9438     8355.00000
    10.9570     8453.00000
    10.9701     8603.00000
    10.9832     8493.00000
    10.9964     8660.00000
    11.0095     8817.00000
    11.0226     8765.00000
    11.0358     8870.00000
    11.0489     9014.00000
    11.0620     9154.00000
    11.0751     9162.00000
    11.0883     9460.00000
    11.1014     9722.00000
    11.1145    10118.00000
    11.1277    10941.00000
    11.1408    11443.00000
    11.1539    12794.00000
    11.1671    14267.00000
    11.1802    16837.00000
    11.1933    20968.00000
    11.2065    27084.00000
    11.2196    37506.00000
    11.2327    51597.00000
    11.2458    67155.00000
    11.2590    78057.00000
    11.2721    78598.00000
    11.2852    70165.00000
    11.2984    54886.00000
    11.3115    39965.00000
    11.3246    27481.00000
    11.3378    18769.00000
    11.3509    13936.00000
    11.3640    11354.00000
    11.3771    10046.00000
    11.3903     9213.00000
    11.4034     9112.00000
    11.4165     8790.00000
    11.4297     8797.00000
    11.4428     8772.00000
    11.4559     8493.00000
    11.4691     8361.00000
    11.4822     8374.00000
    11.4953     8324.00000
    11.5084     8436.00000
    11.5216     8219.00000
    11.5347     8160.00000
    11.5478     7989.00000
    11.5610     8111.00000
    11.5741     8052.00000
    11.5872     8152.00000
    11.6004     7961.00000
    11.6135     8214.00000
    11.6266     7847.00000
    11.6398     8090.00000
    11.6529     7911.00000
    11.6660     8086.00000
    11.6791     8199.00000
    11.6923     8135.00000
    11.7054     8056.00000
    11.7185     8073.00000
    11.7317     8090.00000
    11.7448     8248.00000
    11.7579     8127.00000
    11.7711     8248.00000
    11.7842     8267.00000
    11.7973     8231.00000
    11.8104     8006.00000
    11.8236     8083.00000
    11.8367     8334.00000
    11.8498     8310.00000
    11.8630     8485.00000
    11.8761     8245.00000
    11.8892     8125.00000
    11.9024     8266.00000
    11.9155     8283.00000
    11.9286     8333.00000
    11.9417     8433.00000
    11.9549     8170.00000
    11.9680     8179.00000
    11.9811     8197.00000
    11.9943     8408.00000
    12.0074     8419.00000
    12.0205     8439.00000
    12.0337     8336.00000
    12.0468     8316.00000
    12.0599     8139.00000
    12.0731     8472.00000
    12.0862     8329.00000
    12.0993     8365.00000
    12.1124     8354.00000
    12.1256     8488.00000
    12.1387     8462.00000
    12.1518     8266.00000
    12.1650     8284.00000
    12.1781     8384.00000
    12.1912     8261.00000
    12.2044     8297.00000
    12.2175     8502.00000
    12.2306     8512.00000
    12.2437     8342.00000
    12.2569     8370.00000
    12.2700     8451.00000
    12.2831     8453.00000
    12.2963     8364.00000
    12.3094     8432.00000
    12.3225     8432.00000
    12.3357     8461.00000
    12.3488     8453.00000
    12.3619     8484.00000
    12.3750     8436.00000
    12.3882     8390.00000
    12.4013     8368.00000
    12.4144     8513.00000
    12.4276     8265.00000
    12.4407     8418.00000
    12.4538     8287.00000
    12.4670     8496.00000
    12.4801     8467.00000
    12.4932     8372.00000
    12.5063     8408.00000
    12.5195     8508.00000
    12.5326     8301.00000
    12.5457     8463.00000
    12.5589     8359.00000
    12.5720     8440.00000
    12.5851     8285.00000
    12.5983     8416.00000
    12.6114     8305.00000
    12.6245     8355.00000
    12.6377     8129.00000
    12.6508     8395.00000
    12.6639     8401.00000
    12.6770     8353.00000
    12.6902     8234.00000
    12.7033     8203.00000
    12.7164     8359.00000
    12.7296     8222.00000
    12.7427     8066.00000
    12.7558     8197.00000
    12.7690     8353.00000
    12.7821     8462.00000
    12.7952     8289.00000
    12.8083     8255.00000
    12.8215     8338.00000
    12.8346     8340.00000
    12.8477     8213.00000
    12.8609     8125.00000
    12.8740     8316.00000
    12.8871     8165.00000
    12.9003     8406.00000
    12.9134     8473.00000
    12.9265     8383.00000
    12.9396     8164.00000
    12.9528     8275.00000
    12.9659     8288.00000
    12.9790     8177.00000
    12.9922     8127.00000
    13.0053     8082.00000
    13.0184     8378.00000
    13.0316     8195.00000
    13.0447     8351.00000
    13.0578     8436.00000
    13.0710     8174.00000
    13.0841     8088.00000
    13.0972     8193.00000
    13.1103     8139.00000
    13.1235     8061.00000
    13.1366     8161.00000
    13.1497     8203.00000
    13.1629     8122.00000
    13.1760     8285.00000
    13.1891     8198.00000
    13.2023     8320.00000
    13.2154     8286.00000
    13.2285     8220.00000
    13.2416     8210.00000
    13.2548     8177.00000
    13.2679     8341.00000
    13.2810     8233.00000
    13.2942     8192.00000
    13.3073     8202.00000
    13.3204     8345.00000
    13.3336     8217.00000
    13.3467     8277.00000
    13.3598     8116.00000
    13.3729     8057.00000
    13.3861     8069.00000
    13.3992     8064.00000
    13.4123     7975.00000
    13.4255     8117.00000
    13.4386     8220.00000
    13.4517     7856.00000
    13.4649     8007.00000
    13.4780     7941.00000
    13.4911     8154.00000
    13.5043     8214.00000
    13.5174     8068.00000
    13.5305     7968.00000
    13.5436     8139.00000
    13.5568     8226.00000
    13.5699     8103.00000
    13.5830     8047.00000
    13.5962     8161.00000
    13.6093     8213.00000
    13.6224     8005.00000
    13.6356     8133.00000
    13.6487     8059.00000
    13.6618     8209.00000
    13.6749     8226.00000
    13.6881     8209.00000
    13.7012     8177.00000
    13.7143     8178.00000
    13.7275     8259.00000
    13.7406     8328.00000
    13.7537     8251.00000
    13.7669     8139.00000
    13.7800     8204.00000
    13.7931     8145.00000
    13.8062     8111.00000
    13.8194     8188.00000
    13.8325     8136.00000
    13.8456     8293.00000
    13.8588     7990.00000
    13.8719     7967.00000
    13.8850     8120.00000
    13.8982     7953.00000
    13.9113     8108.00000
    13.9244     8247.00000
    13.9376     7972.00000
    13.9507     8025.00000
    13.9638     8013.00000
    13.9769     8024.00000
    13.9901     8076.00000
    14.0032     8088.00000
    14.0163     8159.00000
    14.0295     8108.00000
    14.0426     8085.00000
    14.0557     8091.00000
    14.0689     8101.00000
    14.0820     7933.00000
    14.0951     8234.00000
    14.1082     8105.00000
    14.1214     8206.00000
    14.1345     8103.00000
    14.1476     8187.00000
    14.1608     8078.00000
    14.1739     8051.00000
    14.1870     7992.00000
    14.2002     8308.00000
    14.2133     8282.00000
    14.2264     8059.00000
    14.2395     8097.00000
    14.2527     8170.00000
    14.2658     8159.00000
    14.2789     8196.00000
    14.2921     7972.00000
    14.3052     8006.00000
    14.3183     8140.00000
    14.3315     7935.00000
    14.3446     7985.00000
    14.3577     8260.00000
    14.3708     8309.00000
    14.3840     8095.00000
    14.3971     7959.00000
    14.4102     8138.00000
    14.4234     8286.00000
    14.4365     8149.00000
    14.4496     8518.00000
    14.4628     8458.00000
    14.4759     8888.00000
    14.4890     9140.00000
    14.5022     9379.00000
    14.5153     9605.00000
    14.5284     9730.00000
    14.5415     9536.00000
    14.5547     9613.00000
    14.5678     9229.00000
    14.5809     9198.00000
    14.5941     8854.00000
    14.6072     8622.00000
    14.6203     8383.00000
    14.6335     8270.00000
    14.6466     8081.00000
    14.6597     8074.00000
    14.6728     8098.00000
    14.6860     8010.00000
    14.6991     8311.00000
    14.7122     8106.00000
    14.7254     7987.00000
    14.7385     8048.00000
    14.7516     8100.00000
    14.7648     7910.00000
    14.7779     7950.00000
    14.7910     7926.00000
    14.8041     7785.00000
    14.8173     7926.00000
    14.8304     8019.00000
    14.8435     8055.00000
    14.8567     8015.00000
    14.8698     7993.00000
    14.8829     8106.00000
    14.8961     8168.00000
    14.9092     7854.00000
    14.9223     7810.00000
    14.9355     7806.00000
    14.9486     8081.00000
    14.9617     7858.00000
    14.9748     7797.00000
    14.9880     7986.00000
    15.0011     8052.00000
    15.0142     8025.00000
    15.0274     8067.00000
    15.0405     7901.00000
    15.0536     8082.00000
    15.0668     7767.00000
    15.0799     7977.00000
    15.0930     7928.00000
    15.1061     7805.00000
    15.1193     7585.00000
    15.1324     7755.00000
    15.1455     7878.00000
    15.1587     7822.00000
    15.1718     7953.00000
    15.1849     7939.00000
    15.1981     7828.00000
    15.2112     8065.00000
    15.2243     7899.00000
    15.2374     8063.00000
    15.2506     7897.00000
    15.2637     7915.00000
    15.2768     8053.00000
    15.2900     7861.00000
    15.3031     7883.00000
    15.3162     7869.00000
    15.3294     7686.00000
    15.3425     7831.00000
    15.3556     8060.00000
    15.3688     7879.00000
    15.3819     8001.00000
    15.3950     8015.00000
    15.4081     7869.00000
    15.4213     7961.00000
    15.4344     8010.00000
    15.4475     7796.00000
    15.4607     7908.00000
    15.4738     7925.00000
    15.4869     7851.00000
    15.5001     7874.00000
    15.5132     7889.00000
    15.5263     7789.00000
    15.5394     7728.00000
    15.5526     7855.00000
    15.5657     7600.00000
    15.5788     7814.00000
    15.5920     7734.00000
    15.6051     7883.00000
    15.6182     7903.00000
    15.6314     7919.00000
    15.6445     7917.00000
    15.6576     7794.00000
    15.6707     7849.00000
    15.6839     7869.00000
    15.6970     7863.00000
    15.7101     7769.00000
    15.7233     7737.00000
    15.7364     7911.00000
    15.7495     7849.00000
    15.7627     7925.00000
    15.7758     7873.00000
    15.7889     7846.00000
    15.8021     7853.00000
    15.8152     8033.00000
    15.8283     7803.00000
    15.8414     7900.00000
    15.8546     7635.00000
    15.8677     7726.00000
    15.8808     7821.00000
    15.8940     7798.00000
    15.9071     7624.00000
    15.9202     7763.00000
    15.9334     7813.00000
    15.9465     7688.00000
    15.9596     7700.00000
    15.9727     7815.00000
    15.9859     8007.00000
    15.9990     7929.00000
    16.0121     7848.00000
    16.0253     7761.00000
    16.0384     8064.00000
    16.0515     8032.00000
    16.0647     7917.00000
    16.0778     7779.00000
    16.0909     7773.00000
    16.1040     8053.00000
    16.1172     7910.00000
    16.1303     7826.00000
    16.1434     7790.00000
    16.1566     7915.00000
    16.1697     7861.00000
    16.1828     7862.00000
    16.1960     7619.00000
    16.2091     7742.00000
    16.2222     7871.00000
    16.2353     7893.00000
    16.2485     7743.00000
    16.2616     7560.00000
    16.2747     7798.00000
    16.2879     7822.00000
    16.3010     7698.00000
    16.3141     7702.00000
    16.3273     7680.00000
    16.3404     7723.00000
    16.3535     7750.00000
    16.3667     7823.00000
    16.3798     7888.00000
    16.3929     7905.00000
    16.4060     7667.00000
    16.4192     7679.00000
    16.4323     7883.00000
    16.4454     7753.00000
    16.4586     7766.00000
    16.4717     7692.00000
    16.4848     7909.00000
    16.4980     7917.00000
    16.5111     7898.00000
    16.5242     7859.00000
    16.5373     7804.00000
    16.5505     7846.00000
    16.5636     7765.00000
    16.5767     7552.00000
    16.5899     7690.00000
    16.6030     7617.00000
    16.6161     7776.00000
    16.6293     7861.00000
    16.6424     7668.00000
    16.6555     7798.00000
    16.6686     7836.00000
    16.6818     7754.00000
    16.6949     7767.00000
    16.7080     7773.00000
    16.7212     7836.00000
    16.7343     7703.00000
    16.7474     8067.00000
    16.7606     7963.00000
    16.7737     8007.00000
    16.7868     8034.00000
    16.8000     8417.00000
    16.8131     8177.00000
    16.8262     8123.00000
    16.8393     8060.00000
    16.8525     7955.00000
    16.8656     7847.00000
    16.8787     7895.00000
    16.8919     7837.00000
    16.9050     7733.00000
    16.9181     7878.00000
    16.9313     7703.00000
    16.9444     7640.00000
    16.9575     7731.00000
    16.9706     7621.00000
    16.9838     7859.00000
    16.9969     7772.00000
    17.0100     7544.00000
    17.0232     7580.00000
    17.0363     7438.00000
    17.0494     7643.00000
    17.0626     7527.00000
    17.0757     7558.00000
    17.0888     7711.00000
    17.1019     7760.00000
    17.1151     7849.00000
    17.1282     7592.00000
    17.1413     7646.00000
    17.1545     7648.00000
    17.1676     7668.00000
    17.1807     7624.00000
    17.1939     7716.00000
    17.2070     7539.00000
    17.2201     7742.00000
    17.2333     7696.00000
    17.2464     7793.00000
    17.2595     7662.00000
    17.2726     7422.00000
    17.2858     7489.00000
    17.2989     7693.00000
    17.3120     7525.00000
    17.3252     7599.00000
    17.3383     7453.00000
    17.3514     7475.00000
    17.3646     7678.00000
    17.3777     7631.00000
    17.3908     7643.00000
    17.4039     7557.00000
    17.4171     7413.00000
    17.4302     7462.00000
    17.4433     7443.00000
    17.4565     7717.00000
    17.4696     7526.00000
    17.4827     7686.00000
    17.4959     7679.00000
    17.5090     7417.00000
    17.5221     7450.00000
    17.5352     7631.00000
    17.5484     7672.00000
    17.5615     7668.00000
    17.5746     7607.00000
    17.5878     7607.00000
    17.6009     7644.00000
    17.6140     7558.00000
    17.6272     7517.00000
    17.6403     7506.00000
    17.6534     7584.00000
    17.6666     7406.00000
    17.6797     7599.00000
    17.6928     7515.00000
    17.7059     7525.00000
    17.7191     7569.00000
    17.7322     7530.00000
    17.7453     7506.00000
    17.7585     7555.00000
    17.7716     7580.00000
    17.7847     7568.00000
    17.7979     7617.00000
    17.8110     7429.00000
    17.8241     7373.00000
    17.8372     7532.00000
    17.8504     7575.00000
    17.8635     7458.00000
    17.8766     7530.00000
    17.8898     7477.00000
    17.9029     7621.00000
    17.9160     7877.00000
    17.9292     7600.00000
    17.9423     7687.00000
    17.9554     7710.00000
    17.9685     7809.00000
    17.9817     7836.00000
    17.9948     7593.00000
    18.0079     7545.00000
    18.0211     7456.00000
    18.0342     7422.00000
    18.0473     7513.00000
    18.0605     7457.00000
    18.0736     7457.00000
    18.0867     7310.00000
    18.0998     7359.00000
    18.1130     7427.00000
    18.1261     7468.00000
    18.1392     7380.00000
    18.1524     7326.00000
    18.1655     7420.00000
    18.1786     7385.00000
    18.1918     7411.00000
    18.2049     7493.00000
    18.2180     7386.00000
    18.2312     7459.00000
    18.2443     7368.00000
    18.2574     7484.00000
    18.2705     7597.00000
    18.2837     7433.00000
    18.2968     7469.00000
    18.3099     7335.00000
    18.3231     7273.00000
    18.3362     7269.00000
    18.3493     7421.00000
    18.3625     7353.00000
    18.3756     7511.00000
    18.3887     7289.00000
    18.4018     7372.00000
    18.4150     7469.00000
    18.4281     7398.00000
    18.4412     7485.00000
    18.4544     7301.00000
    18.4675     7212.00000
    18.4806     7298.00000
    18.4938     7442.00000
    18.5069     7198.00000
    18.5200     7483.00000
    18.5331     7445.00000
    18.5463     7449.00000
    18.5594     7424.00000
    18.5725     7410.00000
    18.5857     7249.00000
    18.5988     7392.00000
    18.6119     7305.00000
    18.6251     7275.00000
    18.6382     7311.00000
    18.6513     7279.00000
    18.6645     7428.00000
    18.6776     7308.00000
    18.6907     7407.00000
    18.7038     7534.00000
    18.7170     7511.00000
    18.7301     7385.00000
    18.7432     7295.00000
    18.7564     7539.00000
    18.7695     7228.00000
    18.7826     7397.00000
    18.7958     7527.00000
    18.8089     7301.00000
    18.8220     7309.00000
    18.8351     7230.00000
    18.8483     7449.00000
    18.8614     7323.00000
    18.8745     7298.00000
    18.8877     7330.00000
    18.9008     7197.00000
    18.9139     7305.00000
    18.9271     7392.00000
    18.9402     7327.00000
