! Initial file:   D:\ZAKARY_OUAIL\MA_THESE\Deuxième_année_de_thèse\DRX\Affinement_DRX\Fullprof\Thermodiff3-nuit_NaNbO2F2\120°C\NaNbO2F2-Lent_120°C.xrdml
! Initial format:  58
! WAVE (A):      1.54060     1.54060     1.00000
! REM : data have been multiplied by     1.0000
! X_data : 2 Theta (deg.)                                                                                                                                                                                                                                                  
! Y_data : Intensity (arb. units)                                                                                                                                                                                                                                          
!     X         Y
!--------------------------------------------------------------------------------
    10.0116     7994.00000
    10.0247     7843.00000
    10.0379     7955.00000
    10.0510     7877.00000
    10.0641     7955.00000
    10.0772     7961.00000
    10.0904     7806.00000
    10.1035     7968.00000
    10.1166     7826.00000
    10.1298     7950.00000
    10.1429     8180.00000
    10.1560     8199.00000
    10.1692     8131.00000
    10.1823     8105.00000
    10.1954     7882.00000
    10.2086     8118.00000
    10.2217     8136.00000
    10.2348     8124.00000
    10.2479     8067.00000
    10.2611     7867.00000
    10.2742     8036.00000
    10.2873     7978.00000
    10.3005     7938.00000
    10.3136     8088.00000
    10.3267     8110.00000
    10.3399     7977.00000
    10.3530     7920.00000
    10.3661     7849.00000
    10.3792     8096.00000
    10.3924     8065.00000
    10.4055     8207.00000
    10.4186     7902.00000
    10.4318     7963.00000
    10.4449     7936.00000
    10.4580     8059.00000
    10.4712     7984.00000
    10.4843     7876.00000
    10.4974     7935.00000
    10.5105     8057.00000
    10.5237     7939.00000
    10.5368     7911.00000
    10.5499     8044.00000
    10.5631     8008.00000
    10.5762     7976.00000
    10.5893     7867.00000
    10.6025     8036.00000
    10.6156     7896.00000
    10.6287     7988.00000
    10.6418     7963.00000
    10.6550     8064.00000
    10.6681     7891.00000
    10.6812     7800.00000
    10.6944     7960.00000
    10.7075     8026.00000
    10.7206     7804.00000
    10.7338     8005.00000
    10.7469     7921.00000
    10.7600     7803.00000
    10.7732     8043.00000
    10.7863     8191.00000
    10.7994     8062.00000
    10.8125     8074.00000
    10.8257     7946.00000
    10.8388     8010.00000
    10.8519     8038.00000
    10.8651     8188.00000
    10.8782     8107.00000
    10.8913     8143.00000
    10.9045     8245.00000
    10.9176     8337.00000
    10.9307     8440.00000
    10.9438     8453.00000
    10.9570     8607.00000
    10.9701     8535.00000
    10.9832     8621.00000
    10.9964     8592.00000
    11.0095     8692.00000
    11.0226     8710.00000
    11.0358     8670.00000
    11.0489     8869.00000
    11.0620     8945.00000
    11.0751     9000.00000
    11.0883     9619.00000
    11.1014     9867.00000
    11.1145    10284.00000
    11.1277    11001.00000
    11.1408    11876.00000
    11.1539    13083.00000
    11.1671    14715.00000
    11.1802    17675.00000
    11.1933    21887.00000
    11.2065    29052.00000
    11.2196    40012.00000
    11.2327    55309.00000
    11.2458    70197.00000
    11.2590    79639.00000
    11.2721    76826.00000
    11.2852    66959.00000
    11.2984    51724.00000
    11.3115    37189.00000
    11.3246    25540.00000
    11.3378    17372.00000
    11.3509    12988.00000
    11.3640    10663.00000
    11.3771     9570.00000
    11.3903     9197.00000
    11.4034     9110.00000
    11.4165     8637.00000
    11.4297     8582.00000
    11.4428     8467.00000
    11.4559     8445.00000
    11.4691     8330.00000
    11.4822     8247.00000
    11.4953     8210.00000
    11.5084     8180.00000
    11.5216     8312.00000
    11.5347     8079.00000
    11.5478     8016.00000
    11.5610     8055.00000
    11.5741     8005.00000
    11.5872     8111.00000
    11.6004     7833.00000
    11.6135     8258.00000
    11.6266     8145.00000
    11.6398     8120.00000
    11.6529     7956.00000
    11.6660     8205.00000
    11.6791     7841.00000
    11.6923     7760.00000
    11.7054     7948.00000
    11.7185     8153.00000
    11.7317     8104.00000
    11.7448     8140.00000
    11.7579     8072.00000
    11.7711     8174.00000
    11.7842     8343.00000
    11.7973     8112.00000
    11.8104     8202.00000
    11.8236     8290.00000
    11.8367     8204.00000
    11.8498     8420.00000
    11.8630     8434.00000
    11.8761     8380.00000
    11.8892     8274.00000
    11.9024     8326.00000
    11.9155     8405.00000
    11.9286     8182.00000
    11.9417     8259.00000
    11.9549     8198.00000
    11.9680     8217.00000
    11.9811     8308.00000
    11.9943     8386.00000
    12.0074     8083.00000
    12.0205     8195.00000
    12.0337     8288.00000
    12.0468     8133.00000
    12.0599     8304.00000
    12.0731     8239.00000
    12.0862     8414.00000
    12.0993     8365.00000
    12.1124     8347.00000
    12.1256     8346.00000
    12.1387     8479.00000
    12.1518     8390.00000
    12.1650     8335.00000
    12.1781     8261.00000
    12.1912     8275.00000
    12.2044     8398.00000
    12.2175     8491.00000
    12.2306     8395.00000
    12.2437     8244.00000
    12.2569     8460.00000
    12.2700     8545.00000
    12.2831     8197.00000
    12.2963     8381.00000
    12.3094     8377.00000
    12.3225     8221.00000
    12.3357     8345.00000
    12.3488     8181.00000
    12.3619     8207.00000
    12.3750     8130.00000
    12.3882     8452.00000
    12.4013     8359.00000
    12.4144     8266.00000
    12.4276     8496.00000
    12.4407     8446.00000
    12.4538     8137.00000
    12.4670     8267.00000
    12.4801     8396.00000
    12.4932     8302.00000
    12.5063     8397.00000
    12.5195     8371.00000
    12.5326     8384.00000
    12.5457     8261.00000
    12.5589     8328.00000
    12.5720     8416.00000
    12.5851     8339.00000
    12.5983     8261.00000
    12.6114     8466.00000
    12.6245     8015.00000
    12.6377     8240.00000
    12.6508     8230.00000
    12.6639     8434.00000
    12.6770     8357.00000
    12.6902     8401.00000
    12.7033     8429.00000
    12.7164     8359.00000
    12.7296     8228.00000
    12.7427     8256.00000
    12.7558     8343.00000
    12.7690     8172.00000
    12.7821     8300.00000
    12.7952     8426.00000
    12.8083     8340.00000
    12.8215     8273.00000
    12.8346     8176.00000
    12.8477     8250.00000
    12.8609     8252.00000
    12.8740     8247.00000
    12.8871     8143.00000
    12.9003     8324.00000
    12.9134     8311.00000
    12.9265     8045.00000
    12.9396     8212.00000
    12.9528     8125.00000
    12.9659     8140.00000
    12.9790     8333.00000
    12.9922     8140.00000
    13.0053     8264.00000
    13.0184     8142.00000
    13.0316     8165.00000
    13.0447     8100.00000
    13.0578     8109.00000
    13.0710     8201.00000
    13.0841     8022.00000
    13.0972     8201.00000
    13.1103     8125.00000
    13.1235     8245.00000
    13.1366     8044.00000
    13.1497     8207.00000
    13.1629     8139.00000
    13.1760     8056.00000
    13.1891     7959.00000
    13.2023     8157.00000
    13.2154     8311.00000
    13.2285     8324.00000
    13.2416     8224.00000
    13.2548     8163.00000
    13.2679     8035.00000
    13.2810     8202.00000
    13.2942     8054.00000
    13.3073     8182.00000
    13.3204     8063.00000
    13.3336     7991.00000
    13.3467     7916.00000
    13.3598     8098.00000
    13.3729     8042.00000
    13.3861     8164.00000
    13.3992     8175.00000
    13.4123     8083.00000
    13.4255     8221.00000
    13.4386     7988.00000
    13.4517     8121.00000
    13.4649     8178.00000
    13.4780     8236.00000
    13.4911     8142.00000
    13.5043     7943.00000
    13.5174     8127.00000
    13.5305     8006.00000
    13.5436     8115.00000
    13.5568     8190.00000
    13.5699     8253.00000
    13.5830     8144.00000
    13.5962     8119.00000
    13.6093     7961.00000
    13.6224     8062.00000
    13.6356     7995.00000
    13.6487     8091.00000
    13.6618     8101.00000
    13.6749     8279.00000
    13.6881     8192.00000
    13.7012     8086.00000
    13.7143     8239.00000
    13.7275     8309.00000
    13.7406     8421.00000
    13.7537     8211.00000
    13.7669     7977.00000
    13.7800     8163.00000
    13.7931     8182.00000
    13.8062     8236.00000
    13.8194     8168.00000
    13.8325     8168.00000
    13.8456     8075.00000
    13.8588     8008.00000
    13.8719     8089.00000
    13.8850     7918.00000
    13.8982     8109.00000
    13.9113     8091.00000
    13.9244     8073.00000
    13.9376     7981.00000
    13.9507     8187.00000
    13.9638     7845.00000
    13.9769     8148.00000
    13.9901     8113.00000
    14.0032     8052.00000
    14.0163     8166.00000
    14.0295     7960.00000
    14.0426     8074.00000
    14.0557     8107.00000
    14.0689     7999.00000
    14.0820     8007.00000
    14.0951     8241.00000
    14.1082     8245.00000
    14.1214     8282.00000
    14.1345     8168.00000
    14.1476     8078.00000
    14.1608     7944.00000
    14.1739     8059.00000
    14.1870     7886.00000
    14.2002     8114.00000
    14.2133     7999.00000
    14.2264     7902.00000
    14.2395     7999.00000
    14.2527     7968.00000
    14.2658     8024.00000
    14.2789     8149.00000
    14.2921     8031.00000
    14.3052     8132.00000
    14.3183     8028.00000
    14.3315     7905.00000
    14.3446     8102.00000
    14.3577     8159.00000
    14.3708     7972.00000
    14.3840     8179.00000
    14.3971     8151.00000
    14.4102     8247.00000
    14.4234     8036.00000
    14.4365     8279.00000
    14.4496     8447.00000
    14.4628     8491.00000
    14.4759     8697.00000
    14.4890     9097.00000
    14.5022     9355.00000
    14.5153     9619.00000
    14.5284     9691.00000
    14.5415     9606.00000
    14.5547     9490.00000
    14.5678     9260.00000
    14.5809     9067.00000
    14.5941     8913.00000
    14.6072     8458.00000
    14.6203     8448.00000
    14.6335     8347.00000
    14.6466     8249.00000
    14.6597     8143.00000
    14.6728     8012.00000
    14.6860     7890.00000
    14.6991     7964.00000
    14.7122     7994.00000
    14.7254     8072.00000
    14.7385     8034.00000
    14.7516     8165.00000
    14.7648     7947.00000
    14.7779     7979.00000
    14.7910     7932.00000
    14.8041     7778.00000
    14.8173     7837.00000
    14.8304     8084.00000
    14.8435     8085.00000
    14.8567     8013.00000
    14.8698     7978.00000
    14.8829     7974.00000
    14.8961     7980.00000
    14.9092     7878.00000
    14.9223     7762.00000
    14.9355     7773.00000
    14.9486     7994.00000
    14.9617     7945.00000
    14.9748     7849.00000
    14.9880     7814.00000
    15.0011     7798.00000
    15.0142     7718.00000
    15.0274     7878.00000
    15.0405     7928.00000
    15.0536     7698.00000
    15.0668     7672.00000
    15.0799     7810.00000
    15.0930     7781.00000
    15.1061     7816.00000
    15.1193     7909.00000
    15.1324     7915.00000
    15.1455     7905.00000
    15.1587     7838.00000
    15.1718     7873.00000
    15.1849     7893.00000
    15.1981     7737.00000
    15.2112     7830.00000
    15.2243     7827.00000
    15.2374     7771.00000
    15.2506     7934.00000
    15.2637     7770.00000
    15.2768     7784.00000
    15.2900     7823.00000
    15.3031     8025.00000
    15.3162     7753.00000
    15.3294     8023.00000
    15.3425     7940.00000
    15.3556     7829.00000
    15.3688     7807.00000
    15.3819     7785.00000
    15.3950     7881.00000
    15.4081     7936.00000
    15.4213     7932.00000
    15.4344     7898.00000
    15.4475     7853.00000
    15.4607     7699.00000
    15.4738     7611.00000
    15.4869     7817.00000
    15.5001     7836.00000
    15.5132     7744.00000
    15.5263     7787.00000
    15.5394     7866.00000
    15.5526     7848.00000
    15.5657     7884.00000
    15.5788     7857.00000
    15.5920     7764.00000
    15.6051     7776.00000
    15.6182     7935.00000
    15.6314     7705.00000
    15.6445     7790.00000
    15.6576     7934.00000
    15.6707     7868.00000
    15.6839     7820.00000
    15.6970     7693.00000
    15.7101     7726.00000
    15.7233     7815.00000
    15.7364     7803.00000
    15.7495     7780.00000
    15.7627     7832.00000
    15.7758     7907.00000
    15.7889     7653.00000
    15.8021     7709.00000
    15.8152     7950.00000
    15.8283     7748.00000
    15.8414     7785.00000
    15.8546     7823.00000
    15.8677     7854.00000
    15.8808     7799.00000
    15.8940     7870.00000
    15.9071     7929.00000
    15.9202     8035.00000
    15.9334     7816.00000
    15.9465     7980.00000
    15.9596     7903.00000
    15.9727     7913.00000
    15.9859     7900.00000
    15.9990     7725.00000
    16.0121     7939.00000
    16.0253     8006.00000
    16.0384     7771.00000
    16.0515     7735.00000
    16.0647     7803.00000
    16.0778     7810.00000
    16.0909     7902.00000
    16.1040     7904.00000
    16.1172     7760.00000
    16.1303     7576.00000
    16.1434     7561.00000
    16.1566     7776.00000
    16.1697     7732.00000
    16.1828     7667.00000
    16.1960     7765.00000
    16.2091     7696.00000
    16.2222     7818.00000
    16.2353     7858.00000
    16.2485     7806.00000
    16.2616     7768.00000
    16.2747     7837.00000
    16.2879     7670.00000
    16.3010     7628.00000
    16.3141     7670.00000
    16.3273     7952.00000
    16.3404     7860.00000
    16.3535     7770.00000
    16.3667     7816.00000
    16.3798     7702.00000
    16.3929     7715.00000
    16.4060     7492.00000
    16.4192     7758.00000
    16.4323     7666.00000
    16.4454     7803.00000
    16.4586     7765.00000
    16.4717     7913.00000
    16.4848     7904.00000
    16.4980     7775.00000
    16.5111     7845.00000
    16.5242     7705.00000
    16.5373     7914.00000
    16.5505     7906.00000
    16.5636     7699.00000
    16.5767     7640.00000
    16.5899     7496.00000
    16.6030     7640.00000
    16.6161     7666.00000
    16.6293     7734.00000
    16.6424     7646.00000
    16.6555     7712.00000
    16.6686     7658.00000
    16.6818     7807.00000
    16.6949     7637.00000
    16.7080     7659.00000
    16.7212     7721.00000
    16.7343     7898.00000
    16.7474     7933.00000
    16.7606     7985.00000
    16.7737     8189.00000
    16.7868     8419.00000
    16.8000     8428.00000
    16.8131     8055.00000
    16.8262     8094.00000
    16.8393     7954.00000
    16.8525     8018.00000
    16.8656     7852.00000
    16.8787     7811.00000
    16.8919     8002.00000
    16.9050     7705.00000
    16.9181     7739.00000
    16.9313     7833.00000
    16.9444     7567.00000
    16.9575     7597.00000
    16.9706     7759.00000
    16.9838     7730.00000
    16.9969     7779.00000
    17.0100     7657.00000
    17.0232     7554.00000
    17.0363     7603.00000
    17.0494     7468.00000
    17.0626     7714.00000
    17.0757     7614.00000
    17.0888     7403.00000
    17.1019     7398.00000
    17.1151     7481.00000
    17.1282     7549.00000
    17.1413     7704.00000
    17.1545     7626.00000
    17.1676     7782.00000
    17.1807     7765.00000
    17.1939     7467.00000
    17.2070     7566.00000
    17.2201     7485.00000
    17.2333     7419.00000
    17.2464     7583.00000
    17.2595     7616.00000
    17.2726     7581.00000
    17.2858     7515.00000
    17.2989     7678.00000
    17.3120     7532.00000
    17.3252     7590.00000
    17.3383     7658.00000
    17.3514     7522.00000
    17.3646     7554.00000
    17.3777     7537.00000
    17.3908     7288.00000
    17.4039     7562.00000
    17.4171     7491.00000
    17.4302     7584.00000
    17.4433     7726.00000
    17.4565     7570.00000
    17.4696     7528.00000
    17.4827     7382.00000
    17.4959     7699.00000
    17.5090     7531.00000
    17.5221     7443.00000
    17.5352     7548.00000
    17.5484     7482.00000
    17.5615     7506.00000
    17.5746     7642.00000
    17.5878     7413.00000
    17.6009     7498.00000
    17.6140     7532.00000
    17.6272     7567.00000
    17.6403     7576.00000
    17.6534     7726.00000
    17.6666     7527.00000
    17.6797     7501.00000
    17.6928     7539.00000
    17.7059     7528.00000
    17.7191     7573.00000
    17.7322     7534.00000
    17.7453     7443.00000
    17.7585     7413.00000
    17.7716     7354.00000
    17.7847     7291.00000
    17.7979     7246.00000
    17.8110     7418.00000
    17.8241     7573.00000
    17.8372     7344.00000
    17.8504     7411.00000
    17.8635     7600.00000
    17.8766     7448.00000
    17.8898     7662.00000
    17.9029     7651.00000
    17.9160     7592.00000
    17.9292     7564.00000
    17.9423     7880.00000
    17.9554     7690.00000
    17.9685     7783.00000
    17.9817     7432.00000
    17.9948     7329.00000
    18.0079     7299.00000
    18.0211     7584.00000
    18.0342     7554.00000
    18.0473     7453.00000
    18.0605     7383.00000
    18.0736     7422.00000
    18.0867     7227.00000
    18.0998     7384.00000
    18.1130     7533.00000
    18.1261     7446.00000
    18.1392     7437.00000
    18.1524     7326.00000
    18.1655     7447.00000
    18.1786     7413.00000
    18.1918     7314.00000
    18.2049     7457.00000
    18.2180     7516.00000
    18.2312     7374.00000
    18.2443     7436.00000
    18.2574     7486.00000
    18.2705     7388.00000
    18.2837     7240.00000
    18.2968     7408.00000
    18.3099     7415.00000
    18.3231     7283.00000
    18.3362     7316.00000
    18.3493     7413.00000
    18.3625     7391.00000
    18.3756     7575.00000
    18.3887     7353.00000
    18.4018     7412.00000
    18.4150     7439.00000
    18.4281     7296.00000
    18.4412     7298.00000
    18.4544     7369.00000
    18.4675     7271.00000
    18.4806     7260.00000
    18.4938     7342.00000
    18.5069     7410.00000
    18.5200     7408.00000
    18.5331     7168.00000
    18.5463     7055.00000
    18.5594     7258.00000
    18.5725     7179.00000
    18.5857     7418.00000
    18.5988     7224.00000
    18.6119     7462.00000
    18.6251     7484.00000
    18.6382     7244.00000
    18.6513     7206.00000
    18.6645     7357.00000
    18.6776     7403.00000
    18.6907     7369.00000
    18.7038     7526.00000
    18.7170     7313.00000
    18.7301     7298.00000
    18.7432     7339.00000
    18.7564     7284.00000
    18.7695     7338.00000
    18.7826     7482.00000
    18.7958     7307.00000
    18.8089     7527.00000
    18.8220     7258.00000
    18.8351     7049.00000
    18.8483     7262.00000
    18.8614     7103.00000
    18.8745     7236.00000
    18.8877     7298.00000
    18.9008     7386.00000
    18.9139     7345.00000
    18.9271     7259.00000
    18.9402     7319.00000
