! Initial file:   D:\ZAKARY_OUAIL\MA_THESE\Deuxième_année_de_thèse\DRX\Affinement_DRX\Fullprof\Thermodiff3-nuit_NaNbO2F2\160°C\NaNbO2F2-Lent_160°C.xrdml
! Initial format:  58
! WAVE (A):      1.54060     1.54060     1.00000
! REM : data have been multiplied by     1.0000
! X_data : 2 Theta (deg.)                                                                                                                                                                                                                                                  
! Y_data : Intensity (arb. units)                                                                                                                                                                                                                                          
!     X         Y
!--------------------------------------------------------------------------------
    10.0116     7751.00000
    10.0247     7891.00000
    10.0379     7728.00000
    10.0510     7803.00000
    10.0641     7960.00000
    10.0772     7719.00000
    10.0904     7767.00000
    10.1035     8023.00000
    10.1166     7944.00000
    10.1298     8142.00000
    10.1429     7923.00000
    10.1560     7755.00000
    10.1692     8162.00000
    10.1823     7869.00000
    10.1954     8044.00000
    10.2086     7960.00000
    10.2217     7789.00000
    10.2348     7705.00000
    10.2479     7927.00000
    10.2611     7955.00000
    10.2742     8034.00000
    10.2873     7804.00000
    10.3005     7754.00000
    10.3136     7757.00000
    10.3267     7656.00000
    10.3399     7983.00000
    10.3530     7830.00000
    10.3661     7847.00000
    10.3792     7921.00000
    10.3924     7785.00000
    10.4055     7879.00000
    10.4186     8040.00000
    10.4318     7942.00000
    10.4449     7671.00000
    10.4580     7617.00000
    10.4712     7916.00000
    10.4843     7776.00000
    10.4974     7806.00000
    10.5105     7767.00000
    10.5237     7544.00000
    10.5368     7807.00000
    10.5499     7909.00000
    10.5631     8011.00000
    10.5762     7937.00000
    10.5893     7729.00000
    10.6025     7545.00000
    10.6156     7730.00000
    10.6287     7756.00000
    10.6418     7824.00000
    10.6550     8028.00000
    10.6681     7814.00000
    10.6812     7581.00000
    10.6944     7591.00000
    10.7075     7828.00000
    10.7206     7892.00000
    10.7338     7956.00000
    10.7469     7850.00000
    10.7600     7730.00000
    10.7732     7700.00000
    10.7863     7751.00000
    10.7994     7709.00000
    10.8125     7718.00000
    10.8257     7794.00000
    10.8388     7889.00000
    10.8519     8028.00000
    10.8651     8024.00000
    10.8782     8054.00000
    10.8913     8313.00000
    10.9045     8400.00000
    10.9176     8435.00000
    10.9307     8399.00000
    10.9438     8608.00000
    10.9570     8236.00000
    10.9701     8340.00000
    10.9832     8436.00000
    10.9964     8629.00000
    11.0095     8621.00000
    11.0226     8710.00000
    11.0358     8837.00000
    11.0489     8849.00000
    11.0620     9116.00000
    11.0751     9275.00000
    11.0883     9511.00000
    11.1014     9802.00000
    11.1145    10303.00000
    11.1277    11129.00000
    11.1408    12211.00000
    11.1539    13654.00000
    11.1671    16003.00000
    11.1802    18724.00000
    11.1933    23516.00000
    11.2065    31493.00000
    11.2196    44820.00000
    11.2327    61144.00000
    11.2458    74742.00000
    11.2590    80628.00000
    11.2721    74864.00000
    11.2852    61915.00000
    11.2984    46009.00000
    11.3115    32231.00000
    11.3246    22026.00000
    11.3378    15659.00000
    11.3509    11975.00000
    11.3640    10211.00000
    11.3771     9336.00000
    11.3903     8727.00000
    11.4034     8654.00000
    11.4165     8827.00000
    11.4297     8494.00000
    11.4428     8416.00000
    11.4559     8248.00000
    11.4691     8241.00000
    11.4822     8017.00000
    11.4953     7950.00000
    11.5084     8002.00000
    11.5216     7904.00000
    11.5347     8197.00000
    11.5478     8110.00000
    11.5610     8044.00000
    11.5741     7905.00000
    11.5872     8027.00000
    11.6004     7993.00000
    11.6135     7939.00000
    11.6266     8056.00000
    11.6398     7994.00000
    11.6529     7805.00000
    11.6660     7820.00000
    11.6791     7856.00000
    11.6923     7918.00000
    11.7054     7919.00000
    11.7185     7989.00000
    11.7317     8040.00000
    11.7448     7817.00000
    11.7579     8189.00000
    11.7711     8116.00000
    11.7842     8216.00000
    11.7973     8117.00000
    11.8104     8054.00000
    11.8236     8054.00000
    11.8367     8216.00000
    11.8498     8119.00000
    11.8630     7989.00000
    11.8761     8103.00000
    11.8892     8177.00000
    11.9024     8092.00000
    11.9155     8241.00000
    11.9286     8177.00000
    11.9417     8024.00000
    11.9549     7969.00000
    11.9680     8033.00000
    11.9811     8174.00000
    11.9943     8086.00000
    12.0074     7928.00000
    12.0205     8098.00000
    12.0337     7921.00000
    12.0468     8114.00000
    12.0599     8193.00000
    12.0731     8103.00000
    12.0862     8177.00000
    12.0993     8192.00000
    12.1124     8217.00000
    12.1256     8283.00000
    12.1387     8194.00000
    12.1518     8161.00000
    12.1650     8237.00000
    12.1781     8049.00000
    12.1912     8222.00000
    12.2044     8218.00000
    12.2175     8329.00000
    12.2306     8294.00000
    12.2437     8168.00000
    12.2569     8225.00000
    12.2700     8097.00000
    12.2831     8222.00000
    12.2963     8255.00000
    12.3094     8217.00000
    12.3225     8227.00000
    12.3357     8181.00000
    12.3488     8238.00000
    12.3619     8075.00000
    12.3750     8102.00000
    12.3882     8163.00000
    12.4013     8275.00000
    12.4144     8182.00000
    12.4276     8274.00000
    12.4407     8410.00000
    12.4538     8215.00000
    12.4670     8217.00000
    12.4801     8047.00000
    12.4932     8228.00000
    12.5063     8334.00000
    12.5195     8115.00000
    12.5326     7982.00000
    12.5457     8284.00000
    12.5589     8341.00000
    12.5720     8178.00000
    12.5851     8120.00000
    12.5983     8106.00000
    12.6114     8252.00000
    12.6245     8224.00000
    12.6377     8138.00000
    12.6508     8402.00000
    12.6639     8268.00000
    12.6770     8273.00000
    12.6902     8195.00000
    12.7033     8194.00000
    12.7164     8246.00000
    12.7296     8332.00000
    12.7427     8187.00000
    12.7558     8310.00000
    12.7690     8140.00000
    12.7821     8129.00000
    12.7952     8020.00000
    12.8083     8029.00000
    12.8215     8061.00000
    12.8346     8201.00000
    12.8477     8153.00000
    12.8609     8238.00000
    12.8740     8047.00000
    12.8871     8123.00000
    12.9003     8133.00000
    12.9134     8254.00000
    12.9265     8094.00000
    12.9396     8050.00000
    12.9528     8044.00000
    12.9659     7942.00000
    12.9790     8140.00000
    12.9922     7995.00000
    13.0053     7922.00000
    13.0184     8077.00000
    13.0316     8228.00000
    13.0447     7946.00000
    13.0578     8131.00000
    13.0710     8096.00000
    13.0841     8155.00000
    13.0972     8082.00000
    13.1103     8120.00000
    13.1235     8330.00000
    13.1366     8111.00000
    13.1497     8098.00000
    13.1629     7976.00000
    13.1760     7994.00000
    13.1891     8139.00000
    13.2023     8105.00000
    13.2154     8213.00000
    13.2285     8022.00000
    13.2416     8056.00000
    13.2548     7983.00000
    13.2679     7982.00000
    13.2810     7866.00000
    13.2942     8034.00000
    13.3073     8168.00000
    13.3204     7861.00000
    13.3336     7916.00000
    13.3467     7869.00000
    13.3598     7859.00000
    13.3729     7922.00000
    13.3861     7976.00000
    13.3992     7997.00000
    13.4123     7983.00000
    13.4255     8098.00000
    13.4386     7945.00000
    13.4517     8079.00000
    13.4649     7903.00000
    13.4780     8131.00000
    13.4911     8055.00000
    13.5043     8006.00000
    13.5174     7981.00000
    13.5305     8105.00000
    13.5436     8021.00000
    13.5568     7729.00000
    13.5699     7882.00000
    13.5830     8052.00000
    13.5962     7998.00000
    13.6093     7798.00000
    13.6224     7961.00000
    13.6356     7945.00000
    13.6487     8117.00000
    13.6618     8099.00000
    13.6749     8087.00000
    13.6881     8035.00000
    13.7012     8174.00000
    13.7143     8334.00000
    13.7275     8163.00000
    13.7406     8249.00000
    13.7537     8276.00000
    13.7669     8108.00000
    13.7800     8143.00000
    13.7931     8058.00000
    13.8062     7876.00000
    13.8194     8070.00000
    13.8325     7972.00000
    13.8456     7983.00000
    13.8588     8029.00000
    13.8719     7873.00000
    13.8850     7994.00000
    13.8982     7897.00000
    13.9113     7850.00000
    13.9244     7912.00000
    13.9376     7976.00000
    13.9507     8032.00000
    13.9638     7854.00000
    13.9769     7933.00000
    13.9901     8061.00000
    14.0032     7900.00000
    14.0163     7896.00000
    14.0295     7917.00000
    14.0426     7963.00000
    14.0557     8109.00000
    14.0689     8134.00000
    14.0820     8143.00000
    14.0951     7944.00000
    14.1082     7967.00000
    14.1214     8178.00000
    14.1345     8119.00000
    14.1476     7922.00000
    14.1608     7802.00000
    14.1739     8061.00000
    14.1870     8026.00000
    14.2002     7991.00000
    14.2133     8095.00000
    14.2264     8072.00000
    14.2395     8215.00000
    14.2527     8093.00000
    14.2658     7871.00000
    14.2789     8081.00000
    14.2921     7963.00000
    14.3052     8005.00000
    14.3183     7983.00000
    14.3315     8091.00000
    14.3446     7993.00000
    14.3577     7962.00000
    14.3708     7963.00000
    14.3840     7990.00000
    14.3971     8089.00000
    14.4102     7949.00000
    14.4234     8075.00000
    14.4365     8061.00000
    14.4496     8230.00000
    14.4628     8484.00000
    14.4759     8726.00000
    14.4890     8935.00000
    14.5022     9217.00000
    14.5153     9548.00000
    14.5284     9770.00000
    14.5415     9806.00000
    14.5547     9350.00000
    14.5678     9319.00000
    14.5809     9023.00000
    14.5941     8671.00000
    14.6072     8499.00000
    14.6203     8307.00000
    14.6335     8034.00000
    14.6466     7873.00000
    14.6597     7862.00000
    14.6728     8023.00000
    14.6860     7963.00000
    14.6991     7957.00000
    14.7122     7896.00000
    14.7254     7950.00000
    14.7385     7942.00000
    14.7516     7764.00000
    14.7648     7822.00000
    14.7779     7777.00000
    14.7910     7945.00000
    14.8041     7837.00000
    14.8173     7804.00000
    14.8304     8001.00000
    14.8435     7878.00000
    14.8567     8059.00000
    14.8698     7985.00000
    14.8829     7883.00000
    14.8961     7967.00000
    14.9092     7890.00000
    14.9223     7776.00000
    14.9355     7836.00000
    14.9486     7774.00000
    14.9617     7820.00000
    14.9748     7828.00000
    14.9880     7693.00000
    15.0011     7896.00000
    15.0142     7912.00000
    15.0274     7737.00000
    15.0405     7882.00000
    15.0536     7842.00000
    15.0668     7923.00000
    15.0799     7823.00000
    15.0930     7666.00000
    15.1061     7760.00000
    15.1193     7786.00000
    15.1324     7768.00000
    15.1455     7670.00000
    15.1587     7953.00000
    15.1718     7812.00000
    15.1849     7578.00000
    15.1981     7820.00000
    15.2112     7806.00000
    15.2243     7687.00000
    15.2374     7739.00000
    15.2506     7809.00000
    15.2637     7695.00000
    15.2768     7883.00000
    15.2900     7592.00000
    15.3031     7889.00000
    15.3162     7641.00000
    15.3294     7968.00000
    15.3425     7814.00000
    15.3556     7671.00000
    15.3688     7826.00000
    15.3819     7791.00000
    15.3950     7747.00000
    15.4081     7903.00000
    15.4213     7793.00000
    15.4344     7879.00000
    15.4475     7784.00000
    15.4607     7767.00000
    15.4738     7703.00000
    15.4869     7619.00000
    15.5001     7647.00000
    15.5132     7804.00000
    15.5263     7732.00000
    15.5394     7776.00000
    15.5526     7834.00000
    15.5657     7712.00000
    15.5788     7735.00000
    15.5920     7806.00000
    15.6051     7720.00000
    15.6182     7697.00000
    15.6314     7507.00000
    15.6445     7844.00000
    15.6576     7789.00000
    15.6707     7555.00000
    15.6839     7806.00000
    15.6970     7758.00000
    15.7101     7827.00000
    15.7233     7983.00000
    15.7364     7811.00000
    15.7495     7936.00000
    15.7627     7742.00000
    15.7758     7815.00000
    15.7889     7787.00000
    15.8021     7725.00000
    15.8152     8034.00000
    15.8283     8005.00000
    15.8414     7659.00000
    15.8546     7742.00000
    15.8677     7707.00000
    15.8808     7637.00000
    15.8940     7718.00000
    15.9071     7757.00000
    15.9202     7556.00000
    15.9334     7923.00000
    15.9465     7673.00000
    15.9596     7680.00000
    15.9727     7796.00000
    15.9859     7863.00000
    15.9990     7885.00000
    16.0121     7976.00000
    16.0253     7842.00000
    16.0384     7854.00000
    16.0515     8066.00000
    16.0647     7700.00000
    16.0778     7755.00000
    16.0909     7816.00000
    16.1040     7555.00000
    16.1172     7831.00000
    16.1303     7864.00000
    16.1434     7551.00000
    16.1566     7794.00000
    16.1697     7649.00000
    16.1828     7592.00000
    16.1960     7762.00000
    16.2091     7911.00000
    16.2222     7666.00000
    16.2353     7561.00000
    16.2485     7644.00000
    16.2616     7839.00000
    16.2747     7757.00000
    16.2879     7473.00000
    16.3010     7596.00000
    16.3141     7503.00000
    16.3273     7637.00000
    16.3404     7500.00000
    16.3535     7698.00000
    16.3667     7838.00000
    16.3798     7798.00000
    16.3929     7494.00000
    16.4060     7667.00000
    16.4192     7831.00000
    16.4323     7542.00000
    16.4454     7774.00000
    16.4586     7801.00000
    16.4717     7798.00000
    16.4848     7771.00000
    16.4980     7832.00000
    16.5111     7868.00000
    16.5242     7797.00000
    16.5373     7750.00000
    16.5505     7488.00000
    16.5636     7754.00000
    16.5767     7794.00000
    16.5899     7708.00000
    16.6030     7791.00000
    16.6161     7668.00000
    16.6293     7708.00000
    16.6424     7528.00000
    16.6555     7609.00000
    16.6686     7684.00000
    16.6818     7583.00000
    16.6949     7546.00000
    16.7080     7625.00000
    16.7212     7794.00000
    16.7343     7953.00000
    16.7474     7752.00000
    16.7606     7792.00000
    16.7737     8110.00000
    16.7868     8238.00000
    16.8000     8159.00000
    16.8131     8162.00000
    16.8262     8179.00000
    16.8393     8092.00000
    16.8525     7998.00000
    16.8656     8011.00000
    16.8787     7808.00000
    16.8919     7722.00000
    16.9050     7769.00000
    16.9181     7617.00000
    16.9313     7620.00000
    16.9444     7633.00000
    16.9575     7680.00000
    16.9706     7515.00000
    16.9838     7496.00000
    16.9969     7574.00000
    17.0100     7588.00000
    17.0232     7619.00000
    17.0363     7641.00000
    17.0494     7570.00000
    17.0626     7609.00000
    17.0757     7658.00000
    17.0888     7592.00000
    17.1019     7643.00000
    17.1151     7631.00000
    17.1282     7425.00000
    17.1413     7474.00000
    17.1545     7548.00000
    17.1676     7605.00000
    17.1807     7683.00000
    17.1939     7602.00000
    17.2070     7578.00000
    17.2201     7699.00000
    17.2333     7553.00000
    17.2464     7510.00000
    17.2595     7632.00000
    17.2726     7560.00000
    17.2858     7475.00000
    17.2989     7637.00000
    17.3120     7624.00000
    17.3252     7479.00000
    17.3383     7507.00000
    17.3514     7415.00000
    17.3646     7665.00000
    17.3777     7573.00000
    17.3908     7465.00000
    17.4039     7450.00000
    17.4171     7300.00000
    17.4302     7374.00000
    17.4433     7613.00000
    17.4565     7539.00000
    17.4696     7319.00000
    17.4827     7303.00000
    17.4959     7534.00000
    17.5090     7394.00000
    17.5221     7516.00000
    17.5352     7354.00000
    17.5484     7387.00000
    17.5615     7385.00000
    17.5746     7449.00000
    17.5878     7282.00000
    17.6009     7347.00000
    17.6140     7553.00000
    17.6272     7555.00000
    17.6403     7539.00000
    17.6534     7396.00000
    17.6666     7438.00000
    17.6797     7422.00000
    17.6928     7651.00000
    17.7059     7587.00000
    17.7191     7370.00000
    17.7322     7528.00000
    17.7453     7559.00000
    17.7585     7456.00000
    17.7716     7421.00000
    17.7847     7321.00000
    17.7979     7366.00000
    17.8110     7494.00000
    17.8241     7261.00000
    17.8372     7635.00000
    17.8504     7352.00000
    17.8635     7410.00000
    17.8766     7453.00000
    17.8898     7460.00000
    17.9029     7588.00000
    17.9160     7755.00000
    17.9292     7673.00000
    17.9423     7761.00000
    17.9554     7653.00000
    17.9685     7475.00000
    17.9817     7483.00000
    17.9948     7551.00000
    18.0079     7497.00000
    18.0211     7450.00000
    18.0342     7370.00000
    18.0473     7420.00000
    18.0605     7421.00000
    18.0736     7372.00000
    18.0867     7241.00000
    18.0998     7226.00000
    18.1130     7444.00000
    18.1261     7340.00000
    18.1392     7260.00000
    18.1524     7432.00000
    18.1655     7200.00000
    18.1786     7550.00000
    18.1918     7404.00000
    18.2049     7244.00000
    18.2180     7427.00000
    18.2312     7308.00000
    18.2443     7386.00000
    18.2574     7496.00000
    18.2705     7362.00000
    18.2837     7484.00000
    18.2968     7465.00000
    18.3099     7355.00000
    18.3231     7323.00000
    18.3362     7366.00000
    18.3493     7315.00000
    18.3625     7320.00000
    18.3756     7350.00000
    18.3887     7340.00000
    18.4018     7135.00000
    18.4150     7183.00000
    18.4281     7159.00000
    18.4412     7487.00000
    18.4544     7241.00000
    18.4675     7241.00000
    18.4806     7198.00000
    18.4938     7326.00000
    18.5069     7244.00000
    18.5200     7209.00000
    18.5331     7363.00000
    18.5463     7362.00000
    18.5594     7382.00000
    18.5725     7378.00000
    18.5857     7407.00000
    18.5988     7454.00000
    18.6119     7256.00000
    18.6251     7273.00000
    18.6382     7328.00000
    18.6513     7316.00000
    18.6645     7306.00000
    18.6776     7187.00000
    18.6907     6987.00000
    18.7038     7411.00000
    18.7170     7342.00000
    18.7301     7357.00000
    18.7432     7228.00000
    18.7564     7298.00000
    18.7695     7302.00000
    18.7826     7184.00000
    18.7958     7275.00000
    18.8089     7199.00000
    18.8220     7096.00000
    18.8351     7116.00000
    18.8483     7237.00000
    18.8614     7268.00000
    18.8745     7241.00000
    18.8877     7540.00000
    18.9008     7521.00000
    18.9139     7208.00000
    18.9271     7296.00000
    18.9402     7086.00000
