! Initial file:   D:\ZAKARY_OUAIL\MA_THESE\Deuxième_année_de_thèse\DRX\Affinement_DRX\Fullprof\Thermodiff3-nuit_NaNbO2F2\200°C\NaNbO2F2-Lent_200°C.xrdml
! Initial format:  58
! WAVE (A):      1.54060     1.54060     1.00000
! REM : data have been multiplied by     1.0000
! X_data : 2 Theta (deg.)                                                                                                                                                                                                                                                  
! Y_data : Intensity (arb. units)                                                                                                                                                                                                                                          
!     X         Y
!--------------------------------------------------------------------------------
    10.0116     7637.00000
    10.0247     7839.00000
    10.0379     7703.00000
    10.0510     7587.00000
    10.0641     7439.00000
    10.0772     7683.00000
    10.0904     7647.00000
    10.1035     7678.00000
    10.1166     7653.00000
    10.1298     7889.00000
    10.1429     8027.00000
    10.1560     8043.00000
    10.1692     8013.00000
    10.1823     8020.00000
    10.1954     7847.00000
    10.2086     7625.00000
    10.2217     7686.00000
    10.2348     7827.00000
    10.2479     7615.00000
    10.2611     7717.00000
    10.2742     7775.00000
    10.2873     7809.00000
    10.3005     7746.00000
    10.3136     7976.00000
    10.3267     7798.00000
    10.3399     7653.00000
    10.3530     7888.00000
    10.3661     7812.00000
    10.3792     7723.00000
    10.3924     7855.00000
    10.4055     7735.00000
    10.4186     7839.00000
    10.4318     7794.00000
    10.4449     7834.00000
    10.4580     7782.00000
    10.4712     7498.00000
    10.4843     7664.00000
    10.4974     7732.00000
    10.5105     7665.00000
    10.5237     7769.00000
    10.5368     7575.00000
    10.5499     7605.00000
    10.5631     7782.00000
    10.5762     7720.00000
    10.5893     7628.00000
    10.6025     7536.00000
    10.6156     7738.00000
    10.6287     7888.00000
    10.6418     7732.00000
    10.6550     7628.00000
    10.6681     7716.00000
    10.6812     7784.00000
    10.6944     7650.00000
    10.7075     7654.00000
    10.7206     7894.00000
    10.7338     7661.00000
    10.7469     7578.00000
    10.7600     7907.00000
    10.7732     7833.00000
    10.7863     7713.00000
    10.7994     7699.00000
    10.8125     7743.00000
    10.8257     7764.00000
    10.8388     7901.00000
    10.8519     8013.00000
    10.8651     8029.00000
    10.8782     8055.00000
    10.8913     8287.00000
    10.9045     8239.00000
    10.9176     8200.00000
    10.9307     8238.00000
    10.9438     8096.00000
    10.9570     8324.00000
    10.9701     8288.00000
    10.9832     8507.00000
    10.9964     8254.00000
    11.0095     8458.00000
    11.0226     8592.00000
    11.0358     8646.00000
    11.0489     8801.00000
    11.0620     8739.00000
    11.0751     9161.00000
    11.0883     9404.00000
    11.1014    10086.00000
    11.1145    10361.00000
    11.1277    11337.00000
    11.1408    12455.00000
    11.1539    14300.00000
    11.1671    16786.00000
    11.1802    20784.00000
    11.1933    26266.00000
    11.2065    36228.00000
    11.2196    51075.00000
    11.2327    66902.00000
    11.2458    77965.00000
    11.2590    78960.00000
    11.2721    70267.00000
    11.2852    55633.00000
    11.2984    39778.00000
    11.3115    27261.00000
    11.3246    18578.00000
    11.3378    13458.00000
    11.3509    10730.00000
    11.3640     9649.00000
    11.3771     8987.00000
    11.3903     8835.00000
    11.4034     8590.00000
    11.4165     8463.00000
    11.4297     8370.00000
    11.4428     8157.00000
    11.4559     8266.00000
    11.4691     8161.00000
    11.4822     7988.00000
    11.4953     7992.00000
    11.5084     8067.00000
    11.5216     7871.00000
    11.5347     7788.00000
    11.5478     7947.00000
    11.5610     7758.00000
    11.5741     7744.00000
    11.5872     7795.00000
    11.6004     7689.00000
    11.6135     7674.00000
    11.6266     7654.00000
    11.6398     7769.00000
    11.6529     7677.00000
    11.6660     7614.00000
    11.6791     7781.00000
    11.6923     7840.00000
    11.7054     7772.00000
    11.7185     7897.00000
    11.7317     7774.00000
    11.7448     7975.00000
    11.7579     7985.00000
    11.7711     7933.00000
    11.7842     7944.00000
    11.7973     8112.00000
    11.8104     8048.00000
    11.8236     8013.00000
    11.8367     8178.00000
    11.8498     7942.00000
    11.8630     7900.00000
    11.8761     7943.00000
    11.8892     8062.00000
    11.9024     8100.00000
    11.9155     7984.00000
    11.9286     8054.00000
    11.9417     7949.00000
    11.9549     8240.00000
    11.9680     8172.00000
    11.9811     7961.00000
    11.9943     8193.00000
    12.0074     7997.00000
    12.0205     8066.00000
    12.0337     7891.00000
    12.0468     8068.00000
    12.0599     8331.00000
    12.0731     8166.00000
    12.0862     8054.00000
    12.0993     8228.00000
    12.1124     8160.00000
    12.1256     8161.00000
    12.1387     8122.00000
    12.1518     8145.00000
    12.1650     7980.00000
    12.1781     8161.00000
    12.1912     8081.00000
    12.2044     8081.00000
    12.2175     8206.00000
    12.2306     8136.00000
    12.2437     8269.00000
    12.2569     8276.00000
    12.2700     8093.00000
    12.2831     8266.00000
    12.2963     8059.00000
    12.3094     8185.00000
    12.3225     8230.00000
    12.3357     8211.00000
    12.3488     8364.00000
    12.3619     8152.00000
    12.3750     8136.00000
    12.3882     8017.00000
    12.4013     8084.00000
    12.4144     8078.00000
    12.4276     8202.00000
    12.4407     8080.00000
    12.4538     8006.00000
    12.4670     8014.00000
    12.4801     8069.00000
    12.4932     8235.00000
    12.5063     8104.00000
    12.5195     8113.00000
    12.5326     8100.00000
    12.5457     8096.00000
    12.5589     8133.00000
    12.5720     8173.00000
    12.5851     8142.00000
    12.5983     7972.00000
    12.6114     7943.00000
    12.6245     8194.00000
    12.6377     8015.00000
    12.6508     8066.00000
    12.6639     8075.00000
    12.6770     7931.00000
    12.6902     7976.00000
    12.7033     8061.00000
    12.7164     8102.00000
    12.7296     7948.00000
    12.7427     7986.00000
    12.7558     7991.00000
    12.7690     8095.00000
    12.7821     8127.00000
    12.7952     7984.00000
    12.8083     8090.00000
    12.8215     8071.00000
    12.8346     7866.00000
    12.8477     8002.00000
    12.8609     7992.00000
    12.8740     8024.00000
    12.8871     7937.00000
    12.9003     7827.00000
    12.9134     8042.00000
    12.9265     7955.00000
    12.9396     7978.00000
    12.9528     8043.00000
    12.9659     8068.00000
    12.9790     7936.00000
    12.9922     8131.00000
    13.0053     8112.00000
    13.0184     7754.00000
    13.0316     7950.00000
    13.0447     8061.00000
    13.0578     8080.00000
    13.0710     8063.00000
    13.0841     8079.00000
    13.0972     8127.00000
    13.1103     7976.00000
    13.1235     8061.00000
    13.1366     8009.00000
    13.1497     8138.00000
    13.1629     8127.00000
    13.1760     8182.00000
    13.1891     7998.00000
    13.2023     7992.00000
    13.2154     8010.00000
    13.2285     8058.00000
    13.2416     8101.00000
    13.2548     7843.00000
    13.2679     8148.00000
    13.2810     7890.00000
    13.2942     8031.00000
    13.3073     7942.00000
    13.3204     7869.00000
    13.3336     7816.00000
    13.3467     7904.00000
    13.3598     7861.00000
    13.3729     7836.00000
    13.3861     7873.00000
    13.3992     7961.00000
    13.4123     7897.00000
    13.4255     8065.00000
    13.4386     8060.00000
    13.4517     7824.00000
    13.4649     7849.00000
    13.4780     7901.00000
    13.4911     7759.00000
    13.5043     7992.00000
    13.5174     8042.00000
    13.5305     7989.00000
    13.5436     7838.00000
    13.5568     7960.00000
    13.5699     7770.00000
    13.5830     7701.00000
    13.5962     7755.00000
    13.6093     7871.00000
    13.6224     7937.00000
    13.6356     7990.00000
    13.6487     8074.00000
    13.6618     7937.00000
    13.6749     8054.00000
    13.6881     8210.00000
    13.7012     8262.00000
    13.7143     8102.00000
    13.7275     7996.00000
    13.7406     8022.00000
    13.7537     8001.00000
    13.7669     7983.00000
    13.7800     7900.00000
    13.7931     7979.00000
    13.8062     8202.00000
    13.8194     7839.00000
    13.8325     7728.00000
    13.8456     7728.00000
    13.8588     7954.00000
    13.8719     7965.00000
    13.8850     7982.00000
    13.8982     7911.00000
    13.9113     7873.00000
    13.9244     7936.00000
    13.9376     8077.00000
    13.9507     7988.00000
    13.9638     7817.00000
    13.9769     7837.00000
    13.9901     7833.00000
    14.0032     7831.00000
    14.0163     7971.00000
    14.0295     7764.00000
    14.0426     7941.00000
    14.0557     7803.00000
    14.0689     7731.00000
    14.0820     7937.00000
    14.0951     7888.00000
    14.1082     7962.00000
    14.1214     7950.00000
    14.1345     7767.00000
    14.1476     8218.00000
    14.1608     8038.00000
    14.1739     8056.00000
    14.1870     8042.00000
    14.2002     7847.00000
    14.2133     7722.00000
    14.2264     7771.00000
    14.2395     7842.00000
    14.2527     7902.00000
    14.2658     7821.00000
    14.2789     7742.00000
    14.2921     7920.00000
    14.3052     7869.00000
    14.3183     7982.00000
    14.3315     8040.00000
    14.3446     7838.00000
    14.3577     7892.00000
    14.3708     8024.00000
    14.3840     7936.00000
    14.3971     7918.00000
    14.4102     8026.00000
    14.4234     8151.00000
    14.4365     8239.00000
    14.4496     8308.00000
    14.4628     8369.00000
    14.4759     8701.00000
    14.4890     8789.00000
    14.5022     9134.00000
    14.5153     9401.00000
    14.5284     9501.00000
    14.5415     9693.00000
    14.5547     9475.00000
    14.5678     9174.00000
    14.5809     8890.00000
    14.5941     8516.00000
    14.6072     8249.00000
    14.6203     8058.00000
    14.6335     8058.00000
    14.6466     7979.00000
    14.6597     7997.00000
    14.6728     7845.00000
    14.6860     7955.00000
    14.6991     7809.00000
    14.7122     7768.00000
    14.7254     7698.00000
    14.7385     7736.00000
    14.7516     7790.00000
    14.7648     7787.00000
    14.7779     7911.00000
    14.7910     7831.00000
    14.8041     7872.00000
    14.8173     7605.00000
    14.8304     7897.00000
    14.8435     7684.00000
    14.8567     7914.00000
    14.8698     7770.00000
    14.8829     7517.00000
    14.8961     7748.00000
    14.9092     7744.00000
    14.9223     7908.00000
    14.9355     7930.00000
    14.9486     7746.00000
    14.9617     7932.00000
    14.9748     7830.00000
    14.9880     7748.00000
    15.0011     7734.00000
    15.0142     7904.00000
    15.0274     7695.00000
    15.0405     7709.00000
    15.0536     7631.00000
    15.0668     7678.00000
    15.0799     7528.00000
    15.0930     7707.00000
    15.1061     7765.00000
    15.1193     7905.00000
    15.1324     7950.00000
    15.1455     7769.00000
    15.1587     7788.00000
    15.1718     7856.00000
    15.1849     7583.00000
    15.1981     7815.00000
    15.2112     7799.00000
    15.2243     7621.00000
    15.2374     7697.00000
    15.2506     7819.00000
    15.2637     7868.00000
    15.2768     7739.00000
    15.2900     7780.00000
    15.3031     7640.00000
    15.3162     7720.00000
    15.3294     7936.00000
    15.3425     7751.00000
    15.3556     7770.00000
    15.3688     7654.00000
    15.3819     7693.00000
    15.3950     7743.00000
    15.4081     7805.00000
    15.4213     7653.00000
    15.4344     7704.00000
    15.4475     7692.00000
    15.4607     7683.00000
    15.4738     7819.00000
    15.4869     7695.00000
    15.5001     7792.00000
    15.5132     7870.00000
    15.5263     7516.00000
    15.5394     7753.00000
    15.5526     7725.00000
    15.5657     7693.00000
    15.5788     7653.00000
    15.5920     7648.00000
    15.6051     7813.00000
    15.6182     7753.00000
    15.6314     7648.00000
    15.6445     7757.00000
    15.6576     7588.00000
    15.6707     7723.00000
    15.6839     7736.00000
    15.6970     7443.00000
    15.7101     7638.00000
    15.7233     7820.00000
    15.7364     7765.00000
    15.7495     7748.00000
    15.7627     7976.00000
    15.7758     7560.00000
    15.7889     7480.00000
    15.8021     7606.00000
    15.8152     7528.00000
    15.8283     7632.00000
    15.8414     7733.00000
    15.8546     7501.00000
    15.8677     7663.00000
    15.8808     7822.00000
    15.8940     7930.00000
    15.9071     7574.00000
    15.9202     7725.00000
    15.9334     7903.00000
    15.9465     7694.00000
    15.9596     7473.00000
    15.9727     7704.00000
    15.9859     7785.00000
    15.9990     7982.00000
    16.0121     7853.00000
    16.0253     7785.00000
    16.0384     7815.00000
    16.0515     7866.00000
    16.0647     7489.00000
    16.0778     7560.00000
    16.0909     7554.00000
    16.1040     7848.00000
    16.1172     7720.00000
    16.1303     7545.00000
    16.1434     7819.00000
    16.1566     7683.00000
    16.1697     7908.00000
    16.1828     7680.00000
    16.1960     7621.00000
    16.2091     7656.00000
    16.2222     7842.00000
    16.2353     7648.00000
    16.2485     7682.00000
    16.2616     7688.00000
    16.2747     7726.00000
    16.2879     7759.00000
    16.3010     7739.00000
    16.3141     7618.00000
    16.3273     7607.00000
    16.3404     7546.00000
    16.3535     7729.00000
    16.3667     7785.00000
    16.3798     7704.00000
    16.3929     7487.00000
    16.4060     7622.00000
    16.4192     7624.00000
    16.4323     7605.00000
    16.4454     7620.00000
    16.4586     7652.00000
    16.4717     7583.00000
    16.4848     7905.00000
    16.4980     7639.00000
    16.5111     7550.00000
    16.5242     7760.00000
    16.5373     7702.00000
    16.5505     7861.00000
    16.5636     7632.00000
    16.5767     7646.00000
    16.5899     7792.00000
    16.6030     7560.00000
    16.6161     7588.00000
    16.6293     7642.00000
    16.6424     7456.00000
    16.6555     7548.00000
    16.6686     7615.00000
    16.6818     7457.00000
    16.6949     7617.00000
    16.7080     7707.00000
    16.7212     7478.00000
    16.7343     7731.00000
    16.7474     7638.00000
    16.7606     7803.00000
    16.7737     8094.00000
    16.7868     8010.00000
    16.8000     7932.00000
    16.8131     8016.00000
    16.8262     7872.00000
    16.8393     7987.00000
    16.8525     7700.00000
    16.8656     7823.00000
    16.8787     7654.00000
    16.8919     7750.00000
    16.9050     7744.00000
    16.9181     7753.00000
    16.9313     7771.00000
    16.9444     7607.00000
    16.9575     7842.00000
    16.9706     7631.00000
    16.9838     7581.00000
    16.9969     7711.00000
    17.0100     7620.00000
    17.0232     7566.00000
    17.0363     7516.00000
    17.0494     7511.00000
    17.0626     7573.00000
    17.0757     7591.00000
    17.0888     7486.00000
    17.1019     7587.00000
    17.1151     7434.00000
    17.1282     7561.00000
    17.1413     7630.00000
    17.1545     7532.00000
    17.1676     7550.00000
    17.1807     7499.00000
    17.1939     7474.00000
    17.2070     7642.00000
    17.2201     7395.00000
    17.2333     7505.00000
    17.2464     7647.00000
    17.2595     7603.00000
    17.2726     7397.00000
    17.2858     7299.00000
    17.2989     7490.00000
    17.3120     7600.00000
    17.3252     7511.00000
    17.3383     7502.00000
    17.3514     7506.00000
    17.3646     7412.00000
    17.3777     7549.00000
    17.3908     7472.00000
    17.4039     7441.00000
    17.4171     7446.00000
    17.4302     7593.00000
    17.4433     7522.00000
    17.4565     7508.00000
    17.4696     7489.00000
    17.4827     7444.00000
    17.4959     7539.00000
    17.5090     7591.00000
    17.5221     7511.00000
    17.5352     7606.00000
    17.5484     7451.00000
    17.5615     7252.00000
    17.5746     7376.00000
    17.5878     7361.00000
    17.6009     7320.00000
    17.6140     7490.00000
    17.6272     7610.00000
    17.6403     7412.00000
    17.6534     7387.00000
    17.6666     7440.00000
    17.6797     7315.00000
    17.6928     7422.00000
    17.7059     7405.00000
    17.7191     7521.00000
    17.7322     7419.00000
    17.7453     7496.00000
    17.7585     7327.00000
    17.7716     7392.00000
    17.7847     7353.00000
    17.7979     7391.00000
    17.8110     7387.00000
    17.8241     7328.00000
    17.8372     7341.00000
    17.8504     7600.00000
    17.8635     7419.00000
    17.8766     7531.00000
    17.8898     7854.00000
    17.9029     7588.00000
    17.9160     7767.00000
    17.9292     7716.00000
    17.9423     7412.00000
    17.9554     7482.00000
    17.9685     7586.00000
    17.9817     7651.00000
    17.9948     7445.00000
    18.0079     7349.00000
    18.0211     7475.00000
    18.0342     7252.00000
    18.0473     7333.00000
    18.0605     7298.00000
    18.0736     7180.00000
    18.0867     7118.00000
    18.0998     7360.00000
    18.1130     7265.00000
    18.1261     7393.00000
    18.1392     7242.00000
    18.1524     7562.00000
    18.1655     7526.00000
    18.1786     7310.00000
    18.1918     7296.00000
    18.2049     7227.00000
    18.2180     7220.00000
    18.2312     7256.00000
    18.2443     7399.00000
    18.2574     7291.00000
    18.2705     7263.00000
    18.2837     7264.00000
    18.2968     7461.00000
    18.3099     7340.00000
    18.3231     7378.00000
    18.3362     7478.00000
    18.3493     7359.00000
    18.3625     7288.00000
    18.3756     7146.00000
    18.3887     7231.00000
    18.4018     7364.00000
    18.4150     7309.00000
    18.4281     7240.00000
    18.4412     7141.00000
    18.4544     7281.00000
    18.4675     7231.00000
    18.4806     7286.00000
    18.4938     7374.00000
    18.5069     7350.00000
    18.5200     7259.00000
    18.5331     7310.00000
    18.5463     7287.00000
    18.5594     7242.00000
    18.5725     7308.00000
    18.5857     7354.00000
    18.5988     7278.00000
    18.6119     7230.00000
    18.6251     7070.00000
    18.6382     7393.00000
    18.6513     7265.00000
    18.6645     7293.00000
    18.6776     7189.00000
    18.6907     7299.00000
    18.7038     7198.00000
    18.7170     7151.00000
    18.7301     7267.00000
    18.7432     7176.00000
    18.7564     7285.00000
    18.7695     7097.00000
    18.7826     7200.00000
    18.7958     7076.00000
    18.8089     7049.00000
    18.8220     7265.00000
    18.8351     7400.00000
    18.8483     7109.00000
    18.8614     7079.00000
    18.8745     7205.00000
    18.8877     7110.00000
    18.9008     7174.00000
    18.9139     7107.00000
    18.9271     7288.00000
    18.9402     7228.00000
