! Initial file:   D:\ZAKARY_OUAIL\MA_THESE\Deuxième_année_de_thèse\DRX\Affinement_DRX\Fullprof\Thermodiff3-nuit_NaNbO2F2\230°C\NaNbO2F2-Lent_230°C.xrdml
! Initial format:  58
! WAVE (A):      1.54060     1.54060     1.00000
! REM : data have been multiplied by     1.0000
! X_data : 2 Theta (deg.)                                                                                                                                                                                                                                                  
! Y_data : Intensity (arb. units)                                                                                                                                                                                                                                          
!     X         Y
!--------------------------------------------------------------------------------
    10.0116     7619.00000
    10.0247     7491.00000
    10.0379     7550.00000
    10.0510     7635.00000
    10.0641     7534.00000
    10.0772     7560.00000
    10.0904     7542.00000
    10.1035     7700.00000
    10.1166     7788.00000
    10.1298     8001.00000
    10.1429     7878.00000
    10.1560     7740.00000
    10.1692     7702.00000
    10.1823     7674.00000
    10.1954     7702.00000
    10.2086     7670.00000
    10.2217     7861.00000
    10.2348     7902.00000
    10.2479     7597.00000
    10.2611     7647.00000
    10.2742     7668.00000
    10.2873     7674.00000
    10.3005     7552.00000
    10.3136     7540.00000
    10.3267     7539.00000
    10.3399     7662.00000
    10.3530     7599.00000
    10.3661     7680.00000
    10.3792     7669.00000
    10.3924     7668.00000
    10.4055     7790.00000
    10.4186     7599.00000
    10.4318     7584.00000
    10.4449     7643.00000
    10.4580     7554.00000
    10.4712     7523.00000
    10.4843     7786.00000
    10.4974     7757.00000
    10.5105     7707.00000
    10.5237     7587.00000
    10.5368     7550.00000
    10.5499     7682.00000
    10.5631     7741.00000
    10.5762     7716.00000
    10.5893     7533.00000
    10.6025     7446.00000
    10.6156     7641.00000
    10.6287     7705.00000
    10.6418     7778.00000
    10.6550     7752.00000
    10.6681     7373.00000
    10.6812     7596.00000
    10.6944     7727.00000
    10.7075     7867.00000
    10.7206     7692.00000
    10.7338     7701.00000
    10.7469     7612.00000
    10.7600     7732.00000
    10.7732     7533.00000
    10.7863     7775.00000
    10.7994     7778.00000
    10.8125     7815.00000
    10.8257     7789.00000
    10.8388     7713.00000
    10.8519     7758.00000
    10.8651     8093.00000
    10.8782     8095.00000
    10.8913     7943.00000
    10.9045     8276.00000
    10.9176     8251.00000
    10.9307     7956.00000
    10.9438     7995.00000
    10.9570     8220.00000
    10.9701     8284.00000
    10.9832     8222.00000
    10.9964     8365.00000
    11.0095     8349.00000
    11.0226     8307.00000
    11.0358     8606.00000
    11.0489     8673.00000
    11.0620     8921.00000
    11.0751     9237.00000
    11.0883     9544.00000
    11.1014    10033.00000
    11.1145    10669.00000
    11.1277    11663.00000
    11.1408    12852.00000
    11.1539    14582.00000
    11.1671    17356.00000
    11.1802    21901.00000
    11.1933    28258.00000
    11.2065    39473.00000
    11.2196    54465.00000
    11.2327    70102.00000
    11.2458    79460.00000
    11.2590    79135.00000
    11.2721    68058.00000
    11.2852    52734.00000
    11.2984    37608.00000
    11.3115    25376.00000
    11.3246    17179.00000
    11.3378    12827.00000
    11.3509    10436.00000
    11.3640     9416.00000
    11.3771     8718.00000
    11.3903     8754.00000
    11.4034     8808.00000
    11.4165     8551.00000
    11.4297     8439.00000
    11.4428     8197.00000
    11.4559     8103.00000
    11.4691     8068.00000
    11.4822     7912.00000
    11.4953     8034.00000
    11.5084     7775.00000
    11.5216     7855.00000
    11.5347     7707.00000
    11.5478     7867.00000
    11.5610     7708.00000
    11.5741     7761.00000
    11.5872     7686.00000
    11.6004     7760.00000
    11.6135     7791.00000
    11.6266     7736.00000
    11.6398     7546.00000
    11.6529     7847.00000
    11.6660     7806.00000
    11.6791     7884.00000
    11.6923     7873.00000
    11.7054     7898.00000
    11.7185     7843.00000
    11.7317     7898.00000
    11.7448     7909.00000
    11.7579     7822.00000
    11.7711     7941.00000
    11.7842     8028.00000
    11.7973     7930.00000
    11.8104     7934.00000
    11.8236     7762.00000
    11.8367     7863.00000
    11.8498     7919.00000
    11.8630     7953.00000
    11.8761     8022.00000
    11.8892     8013.00000
    11.9024     8022.00000
    11.9155     7991.00000
    11.9286     8008.00000
    11.9417     8020.00000
    11.9549     8037.00000
    11.9680     8059.00000
    11.9811     7848.00000
    11.9943     7937.00000
    12.0074     7825.00000
    12.0205     7908.00000
    12.0337     7858.00000
    12.0468     7921.00000
    12.0599     8234.00000
    12.0731     8329.00000
    12.0862     8104.00000
    12.0993     8174.00000
    12.1124     8030.00000
    12.1256     8275.00000
    12.1387     8032.00000
    12.1518     7887.00000
    12.1650     7996.00000
    12.1781     8152.00000
    12.1912     7968.00000
    12.2044     7936.00000
    12.2175     8016.00000
    12.2306     8070.00000
    12.2437     8312.00000
    12.2569     8150.00000
    12.2700     8066.00000
    12.2831     8047.00000
    12.2963     8096.00000
    12.3094     8055.00000
    12.3225     8072.00000
    12.3357     7992.00000
    12.3488     8092.00000
    12.3619     8073.00000
    12.3750     8169.00000
    12.3882     7883.00000
    12.4013     8072.00000
    12.4144     8014.00000
    12.4276     8031.00000
    12.4407     8151.00000
    12.4538     8130.00000
    12.4670     8057.00000
    12.4801     8122.00000
    12.4932     8051.00000
    12.5063     7895.00000
    12.5195     8056.00000
    12.5326     8016.00000
    12.5457     7995.00000
    12.5589     8000.00000
    12.5720     8199.00000
    12.5851     8217.00000
    12.5983     8087.00000
    12.6114     7987.00000
    12.6245     8054.00000
    12.6377     8103.00000
    12.6508     7943.00000
    12.6639     7967.00000
    12.6770     7983.00000
    12.6902     8020.00000
    12.7033     7851.00000
    12.7164     7925.00000
    12.7296     8011.00000
    12.7427     7943.00000
    12.7558     7978.00000
    12.7690     8028.00000
    12.7821     8022.00000
    12.7952     7905.00000
    12.8083     8108.00000
    12.8215     8068.00000
    12.8346     8110.00000
    12.8477     7916.00000
    12.8609     7912.00000
    12.8740     8010.00000
    12.8871     7923.00000
    12.9003     7986.00000
    12.9134     8060.00000
    12.9265     8133.00000
    12.9396     8043.00000
    12.9528     7896.00000
    12.9659     8000.00000
    12.9790     8017.00000
    12.9922     7916.00000
    13.0053     7969.00000
    13.0184     8098.00000
    13.0316     8071.00000
    13.0447     7940.00000
    13.0578     7930.00000
    13.0710     8043.00000
    13.0841     7967.00000
    13.0972     8015.00000
    13.1103     7939.00000
    13.1235     7849.00000
    13.1366     7944.00000
    13.1497     7767.00000
    13.1629     7866.00000
    13.1760     7872.00000
    13.1891     7819.00000
    13.2023     8088.00000
    13.2154     7956.00000
    13.2285     7858.00000
    13.2416     7887.00000
    13.2548     7906.00000
    13.2679     7986.00000
    13.2810     7936.00000
    13.2942     8093.00000
    13.3073     7868.00000
    13.3204     7722.00000
    13.3336     7827.00000
    13.3467     7795.00000
    13.3598     7821.00000
    13.3729     7678.00000
    13.3861     7999.00000
    13.3992     7830.00000
    13.4123     7859.00000
    13.4255     7966.00000
    13.4386     8026.00000
    13.4517     7841.00000
    13.4649     7880.00000
    13.4780     7960.00000
    13.4911     7865.00000
    13.5043     7930.00000
    13.5174     7736.00000
    13.5305     7796.00000
    13.5436     7992.00000
    13.5568     7834.00000
    13.5699     7759.00000
    13.5830     7819.00000
    13.5962     7899.00000
    13.6093     7909.00000
    13.6224     7976.00000
    13.6356     7815.00000
    13.6487     7688.00000
    13.6618     7990.00000
    13.6749     8012.00000
    13.6881     7946.00000
    13.7012     8005.00000
    13.7143     8066.00000
    13.7275     8016.00000
    13.7406     8034.00000
    13.7537     7950.00000
    13.7669     7951.00000
    13.7800     7762.00000
    13.7931     7926.00000
    13.8062     7836.00000
    13.8194     7750.00000
    13.8325     7967.00000
    13.8456     7960.00000
    13.8588     7878.00000
    13.8719     7959.00000
    13.8850     7765.00000
    13.8982     7754.00000
    13.9113     7899.00000
    13.9244     7722.00000
    13.9376     7930.00000
    13.9507     7873.00000
    13.9638     7861.00000
    13.9769     7993.00000
    13.9901     7891.00000
    14.0032     7767.00000
    14.0163     7796.00000
    14.0295     8015.00000
    14.0426     7804.00000
    14.0557     8079.00000
    14.0689     7938.00000
    14.0820     7930.00000
    14.0951     8014.00000
    14.1082     7946.00000
    14.1214     7779.00000
    14.1345     7874.00000
    14.1476     7947.00000
    14.1608     7884.00000
    14.1739     7736.00000
    14.1870     7886.00000
    14.2002     7863.00000
    14.2133     7767.00000
    14.2264     7911.00000
    14.2395     7781.00000
    14.2527     7903.00000
    14.2658     7822.00000
    14.2789     8053.00000
    14.2921     7921.00000
    14.3052     7842.00000
    14.3183     7887.00000
    14.3315     7703.00000
    14.3446     7721.00000
    14.3577     7849.00000
    14.3708     7706.00000
    14.3840     7869.00000
    14.3971     7926.00000
    14.4102     8120.00000
    14.4234     7990.00000
    14.4365     8056.00000
    14.4496     8134.00000
    14.4628     8405.00000
    14.4759     8496.00000
    14.4890     8903.00000
    14.5022     9125.00000
    14.5153     9420.00000
    14.5284     9497.00000
    14.5415     9533.00000
    14.5547     9540.00000
    14.5678     9065.00000
    14.5809     8842.00000
    14.5941     8504.00000
    14.6072     8319.00000
    14.6203     7969.00000
    14.6335     7958.00000
    14.6466     7992.00000
    14.6597     7821.00000
    14.6728     7852.00000
    14.6860     7872.00000
    14.6991     7927.00000
    14.7122     7944.00000
    14.7254     7915.00000
    14.7385     7737.00000
    14.7516     7683.00000
    14.7648     7823.00000
    14.7779     7896.00000
    14.7910     7623.00000
    14.8041     7648.00000
    14.8173     7646.00000
    14.8304     7764.00000
    14.8435     7689.00000
    14.8567     7920.00000
    14.8698     7698.00000
    14.8829     7700.00000
    14.8961     7596.00000
    14.9092     7823.00000
    14.9223     7848.00000
    14.9355     7732.00000
    14.9486     7789.00000
    14.9617     7541.00000
    14.9748     7618.00000
    14.9880     7736.00000
    15.0011     7775.00000
    15.0142     7749.00000
    15.0274     7812.00000
    15.0405     7639.00000
    15.0536     7669.00000
    15.0668     7792.00000
    15.0799     7772.00000
    15.0930     7727.00000
    15.1061     7915.00000
    15.1193     7732.00000
    15.1324     7676.00000
    15.1455     7621.00000
    15.1587     7638.00000
    15.1718     7637.00000
    15.1849     7555.00000
    15.1981     7813.00000
    15.2112     7693.00000
    15.2243     7651.00000
    15.2374     7579.00000
    15.2506     7609.00000
    15.2637     7504.00000
    15.2768     7551.00000
    15.2900     7601.00000
    15.3031     7764.00000
    15.3162     7570.00000
    15.3294     7883.00000
    15.3425     7803.00000
    15.3556     7479.00000
    15.3688     7608.00000
    15.3819     7771.00000
    15.3950     7643.00000
    15.4081     7704.00000
    15.4213     7823.00000
    15.4344     7786.00000
    15.4475     7866.00000
    15.4607     7628.00000
    15.4738     7896.00000
    15.4869     7636.00000
    15.5001     7663.00000
    15.5132     7796.00000
    15.5263     7546.00000
    15.5394     7812.00000
    15.5526     7716.00000
    15.5657     7604.00000
    15.5788     7617.00000
    15.5920     7690.00000
    15.6051     7983.00000
    15.6182     7892.00000
    15.6314     7601.00000
    15.6445     7706.00000
    15.6576     7590.00000
    15.6707     7671.00000
    15.6839     7568.00000
    15.6970     7537.00000
    15.7101     7475.00000
    15.7233     7709.00000
    15.7364     7732.00000
    15.7495     7625.00000
    15.7627     7622.00000
    15.7758     7575.00000
    15.7889     7621.00000
    15.8021     7806.00000
    15.8152     7886.00000
    15.8283     7658.00000
    15.8414     7667.00000
    15.8546     7547.00000
    15.8677     7564.00000
    15.8808     7725.00000
    15.8940     7619.00000
    15.9071     7487.00000
    15.9202     7702.00000
    15.9334     7762.00000
    15.9465     7657.00000
    15.9596     7696.00000
    15.9727     7741.00000
    15.9859     7686.00000
    15.9990     7798.00000
    16.0121     7754.00000
    16.0253     7591.00000
    16.0384     7697.00000
    16.0515     7754.00000
    16.0647     7741.00000
    16.0778     7599.00000
    16.0909     7579.00000
    16.1040     7610.00000
    16.1172     7633.00000
    16.1303     7587.00000
    16.1434     7650.00000
    16.1566     7837.00000
    16.1697     7680.00000
    16.1828     7726.00000
    16.1960     7530.00000
    16.2091     7586.00000
    16.2222     7530.00000
    16.2353     7520.00000
    16.2485     7572.00000
    16.2616     7609.00000
    16.2747     7460.00000
    16.2879     7505.00000
    16.3010     7540.00000
    16.3141     7372.00000
    16.3273     7728.00000
    16.3404     7768.00000
    16.3535     7695.00000
    16.3667     7707.00000
    16.3798     7576.00000
    16.3929     7744.00000
    16.4060     7836.00000
    16.4192     7655.00000
    16.4323     7687.00000
    16.4454     7676.00000
    16.4586     7729.00000
    16.4717     7567.00000
    16.4848     7820.00000
    16.4980     7684.00000
    16.5111     7595.00000
    16.5242     7476.00000
    16.5373     7660.00000
    16.5505     7486.00000
    16.5636     7561.00000
    16.5767     7537.00000
    16.5899     7516.00000
    16.6030     7739.00000
    16.6161     7629.00000
    16.6293     7614.00000
    16.6424     7683.00000
    16.6555     7576.00000
    16.6686     7670.00000
    16.6818     7673.00000
    16.6949     7685.00000
    16.7080     7710.00000
    16.7212     7659.00000
    16.7343     7560.00000
    16.7474     7798.00000
    16.7606     7994.00000
    16.7737     7888.00000
    16.7868     8046.00000
    16.8000     8040.00000
    16.8131     8197.00000
    16.8262     7946.00000
    16.8393     7796.00000
    16.8525     7770.00000
    16.8656     7741.00000
    16.8787     7805.00000
    16.8919     7501.00000
    16.9050     7542.00000
    16.9181     7533.00000
    16.9313     7420.00000
    16.9444     7469.00000
    16.9575     7421.00000
    16.9706     7441.00000
    16.9838     7449.00000
    16.9969     7438.00000
    17.0100     7367.00000
    17.0232     7408.00000
    17.0363     7564.00000
    17.0494     7537.00000
    17.0626     7550.00000
    17.0757     7397.00000
    17.0888     7455.00000
    17.1019     7470.00000
    17.1151     7481.00000
    17.1282     7453.00000
    17.1413     7432.00000
    17.1545     7592.00000
    17.1676     7570.00000
    17.1807     7491.00000
    17.1939     7416.00000
    17.2070     7512.00000
    17.2201     7613.00000
    17.2333     7423.00000
    17.2464     7377.00000
    17.2595     7340.00000
    17.2726     7592.00000
    17.2858     7356.00000
    17.2989     7498.00000
    17.3120     7598.00000
    17.3252     7455.00000
    17.3383     7333.00000
    17.3514     7406.00000
    17.3646     7293.00000
    17.3777     7303.00000
    17.3908     7567.00000
    17.4039     7449.00000
    17.4171     7462.00000
    17.4302     7556.00000
    17.4433     7373.00000
    17.4565     7412.00000
    17.4696     7563.00000
    17.4827     7339.00000
    17.4959     7382.00000
    17.5090     7317.00000
    17.5221     7362.00000
    17.5352     7460.00000
    17.5484     7416.00000
    17.5615     7310.00000
    17.5746     7394.00000
    17.5878     7471.00000
    17.6009     7435.00000
    17.6140     7365.00000
    17.6272     7448.00000
    17.6403     7351.00000
    17.6534     7530.00000
    17.6666     7234.00000
    17.6797     7345.00000
    17.6928     7166.00000
    17.7059     7410.00000
    17.7191     7356.00000
    17.7322     7390.00000
    17.7453     7345.00000
    17.7585     7311.00000
    17.7716     7337.00000
    17.7847     7353.00000
    17.7979     7353.00000
    17.8110     7461.00000
    17.8241     7346.00000
    17.8372     7461.00000
    17.8504     7430.00000
    17.8635     7417.00000
    17.8766     7466.00000
    17.8898     7470.00000
    17.9029     7589.00000
    17.9160     7440.00000
    17.9292     7374.00000
    17.9423     7405.00000
    17.9554     7359.00000
    17.9685     7266.00000
    17.9817     7331.00000
    17.9948     7351.00000
    18.0079     7421.00000
    18.0211     7199.00000
    18.0342     7058.00000
    18.0473     7436.00000
    18.0605     7271.00000
    18.0736     7260.00000
    18.0867     7447.00000
    18.0998     7303.00000
    18.1130     7265.00000
    18.1261     7470.00000
    18.1392     7171.00000
    18.1524     7090.00000
    18.1655     7311.00000
    18.1786     7435.00000
    18.1918     7362.00000
    18.2049     7142.00000
    18.2180     7565.00000
    18.2312     7261.00000
    18.2443     7178.00000
    18.2574     7391.00000
    18.2705     7180.00000
    18.2837     7295.00000
    18.2968     7214.00000
    18.3099     7306.00000
    18.3231     7284.00000
    18.3362     7161.00000
    18.3493     7330.00000
    18.3625     7287.00000
    18.3756     7235.00000
    18.3887     7226.00000
    18.4018     7205.00000
    18.4150     7228.00000
    18.4281     7402.00000
    18.4412     7263.00000
    18.4544     7106.00000
    18.4675     7082.00000
    18.4806     7500.00000
    18.4938     7214.00000
    18.5069     7338.00000
    18.5200     7096.00000
    18.5331     7437.00000
    18.5463     7282.00000
    18.5594     7251.00000
    18.5725     7170.00000
    18.5857     7175.00000
    18.5988     7038.00000
    18.6119     7097.00000
    18.6251     7231.00000
    18.6382     7418.00000
    18.6513     7163.00000
    18.6645     7205.00000
    18.6776     7469.00000
    18.6907     7043.00000
    18.7038     7065.00000
    18.7170     7014.00000
    18.7301     7227.00000
    18.7432     7147.00000
    18.7564     7259.00000
    18.7695     7165.00000
    18.7826     7138.00000
    18.7958     7129.00000
    18.8089     7241.00000
    18.8220     7257.00000
    18.8351     7251.00000
    18.8483     7148.00000
    18.8614     7414.00000
    18.8745     7184.00000
    18.8877     7165.00000
    18.9008     7119.00000
    18.9139     7176.00000
    18.9271     7235.00000
    18.9402     7292.00000
