! Initial file:   D:\ZAKARY_OUAIL\MA_THESE\Deuxième_année_de_thèse\DRX\Affinement_DRX\Fullprof\Thermodiff3-nuit_NaNbO2F2\240°C\NaNbO2F2-Lent_240°C.xrdml
! Initial format:  58
! WAVE (A):      1.54060     1.54060     1.00000
! REM : data have been multiplied by     1.0000
! X_data : 2 Theta (deg.)                                                                                                                                                                                                                                                  
! Y_data : Intensity (arb. units)                                                                                                                                                                                                                                          
!     X         Y
!--------------------------------------------------------------------------------
    10.0116     7515.00000
    10.0247     7490.00000
    10.0379     7491.00000
    10.0510     7303.00000
    10.0641     7841.00000
    10.0772     7634.00000
    10.0904     7714.00000
    10.1035     7621.00000
    10.1166     7636.00000
    10.1298     7778.00000
    10.1429     7748.00000
    10.1560     7715.00000
    10.1692     7751.00000
    10.1823     7806.00000
    10.1954     7616.00000
    10.2086     7621.00000
    10.2217     7514.00000
    10.2348     7709.00000
    10.2479     7619.00000
    10.2611     7724.00000
    10.2742     7847.00000
    10.2873     7482.00000
    10.3005     7534.00000
    10.3136     7622.00000
    10.3267     7575.00000
    10.3399     7589.00000
    10.3530     7657.00000
    10.3661     7572.00000
    10.3792     7707.00000
    10.3924     7543.00000
    10.4055     7718.00000
    10.4186     7708.00000
    10.4318     7615.00000
    10.4449     7660.00000
    10.4580     7768.00000
    10.4712     7768.00000
    10.4843     7651.00000
    10.4974     7536.00000
    10.5105     7671.00000
    10.5237     7655.00000
    10.5368     7581.00000
    10.5499     7423.00000
    10.5631     7464.00000
    10.5762     7504.00000
    10.5893     7423.00000
    10.6025     7521.00000
    10.6156     7558.00000
    10.6287     7669.00000
    10.6418     7538.00000
    10.6550     7500.00000
    10.6681     7593.00000
    10.6812     7562.00000
    10.6944     7688.00000
    10.7075     7403.00000
    10.7206     7573.00000
    10.7338     7719.00000
    10.7469     7637.00000
    10.7600     7805.00000
    10.7732     7547.00000
    10.7863     7645.00000
    10.7994     7585.00000
    10.8125     7844.00000
    10.8257     7699.00000
    10.8388     7756.00000
    10.8519     7803.00000
    10.8651     7893.00000
    10.8782     8043.00000
    10.8913     7976.00000
    10.9045     7993.00000
    10.9176     7996.00000
    10.9307     8061.00000
    10.9438     8113.00000
    10.9570     8127.00000
    10.9701     8264.00000
    10.9832     8139.00000
    10.9964     8286.00000
    11.0095     8578.00000
    11.0226     8489.00000
    11.0358     8570.00000
    11.0489     8563.00000
    11.0620     8865.00000
    11.0751     9094.00000
    11.0883     9455.00000
    11.1014     9947.00000
    11.1145    10402.00000
    11.1277    11404.00000
    11.1408    12822.00000
    11.1539    14799.00000
    11.1671    17743.00000
    11.1802    22464.00000
    11.1933    28814.00000
    11.2065    39846.00000
    11.2196    55251.00000
    11.2327    70350.00000
    11.2458    80063.00000
    11.2590    78608.00000
    11.2721    67802.00000
    11.2852    52196.00000
    11.2984    37585.00000
    11.3115    25108.00000
    11.3246    16836.00000
    11.3378    12637.00000
    11.3509    10236.00000
    11.3640     9374.00000
    11.3771     8878.00000
    11.3903     8667.00000
    11.4034     8564.00000
    11.4165     8188.00000
    11.4297     8255.00000
    11.4428     8028.00000
    11.4559     8260.00000
    11.4691     8101.00000
    11.4822     7894.00000
    11.4953     7846.00000
    11.5084     7804.00000
    11.5216     7634.00000
    11.5347     7755.00000
    11.5478     7696.00000
    11.5610     7736.00000
    11.5741     7709.00000
    11.5872     7756.00000
    11.6004     7686.00000
    11.6135     7574.00000
    11.6266     7757.00000
    11.6398     7679.00000
    11.6529     7687.00000
    11.6660     7804.00000
    11.6791     7815.00000
    11.6923     7648.00000
    11.7054     7862.00000
    11.7185     7864.00000
    11.7317     7755.00000
    11.7448     7949.00000
    11.7579     8053.00000
    11.7711     7942.00000
    11.7842     7781.00000
    11.7973     7974.00000
    11.8104     7851.00000
    11.8236     8195.00000
    11.8367     8103.00000
    11.8498     8097.00000
    11.8630     8020.00000
    11.8761     7962.00000
    11.8892     8051.00000
    11.9024     7917.00000
    11.9155     8100.00000
    11.9286     8057.00000
    11.9417     8041.00000
    11.9549     8065.00000
    11.9680     7996.00000
    11.9811     7999.00000
    11.9943     7897.00000
    12.0074     7854.00000
    12.0205     7812.00000
    12.0337     7910.00000
    12.0468     8002.00000
    12.0599     7937.00000
    12.0731     8090.00000
    12.0862     8119.00000
    12.0993     7911.00000
    12.1124     8046.00000
    12.1256     7975.00000
    12.1387     8091.00000
    12.1518     8123.00000
    12.1650     7975.00000
    12.1781     8027.00000
    12.1912     8065.00000
    12.2044     8083.00000
    12.2175     8044.00000
    12.2306     7937.00000
    12.2437     8151.00000
    12.2569     8067.00000
    12.2700     8112.00000
    12.2831     7975.00000
    12.2963     8141.00000
    12.3094     8172.00000
    12.3225     8112.00000
    12.3357     8041.00000
    12.3488     7790.00000
    12.3619     8030.00000
    12.3750     8126.00000
    12.3882     7946.00000
    12.4013     7983.00000
    12.4144     8009.00000
    12.4276     8115.00000
    12.4407     8057.00000
    12.4538     8061.00000
    12.4670     8131.00000
    12.4801     8101.00000
    12.4932     8183.00000
    12.5063     7873.00000
    12.5195     8107.00000
    12.5326     8067.00000
    12.5457     8132.00000
    12.5589     7961.00000
    12.5720     8047.00000
    12.5851     7953.00000
    12.5983     7923.00000
    12.6114     7942.00000
    12.6245     7886.00000
    12.6377     7929.00000
    12.6508     7901.00000
    12.6639     7966.00000
    12.6770     7938.00000
    12.6902     7911.00000
    12.7033     7952.00000
    12.7164     7983.00000
    12.7296     7874.00000
    12.7427     7911.00000
    12.7558     8009.00000
    12.7690     8160.00000
    12.7821     7965.00000
    12.7952     8155.00000
    12.8083     7985.00000
    12.8215     7952.00000
    12.8346     7948.00000
    12.8477     8079.00000
    12.8609     7919.00000
    12.8740     7841.00000
    12.8871     7922.00000
    12.9003     7943.00000
    12.9134     7808.00000
    12.9265     7989.00000
    12.9396     8049.00000
    12.9528     7973.00000
    12.9659     7941.00000
    12.9790     7830.00000
    12.9922     7917.00000
    13.0053     7884.00000
    13.0184     7938.00000
    13.0316     7906.00000
    13.0447     7890.00000
    13.0578     7823.00000
    13.0710     7863.00000
    13.0841     7995.00000
    13.0972     8044.00000
    13.1103     7818.00000
    13.1235     7874.00000
    13.1366     7968.00000
    13.1497     7979.00000
    13.1629     7993.00000
    13.1760     7997.00000
    13.1891     8032.00000
    13.2023     7914.00000
    13.2154     7816.00000
    13.2285     7609.00000
    13.2416     7918.00000
    13.2548     8016.00000
    13.2679     7965.00000
    13.2810     8107.00000
    13.2942     7929.00000
    13.3073     8009.00000
    13.3204     7962.00000
    13.3336     7867.00000
    13.3467     7809.00000
    13.3598     7901.00000
    13.3729     8014.00000
    13.3861     7831.00000
    13.3992     7893.00000
    13.4123     7924.00000
    13.4255     7921.00000
    13.4386     7879.00000
    13.4517     7910.00000
    13.4649     7716.00000
    13.4780     7799.00000
    13.4911     7824.00000
    13.5043     7712.00000
    13.5174     8016.00000
    13.5305     7852.00000
    13.5436     7816.00000
    13.5568     7908.00000
    13.5699     7787.00000
    13.5830     7715.00000
    13.5962     7879.00000
    13.6093     7939.00000
    13.6224     7849.00000
    13.6356     7889.00000
    13.6487     8028.00000
    13.6618     8010.00000
    13.6749     8116.00000
    13.6881     7974.00000
    13.7012     7907.00000
    13.7143     7916.00000
    13.7275     7761.00000
    13.7406     8118.00000
    13.7537     8039.00000
    13.7669     8089.00000
    13.7800     8063.00000
    13.7931     7731.00000
    13.8062     7887.00000
    13.8194     7927.00000
    13.8325     7841.00000
    13.8456     7716.00000
    13.8588     7829.00000
    13.8719     7810.00000
    13.8850     7746.00000
    13.8982     7932.00000
    13.9113     7826.00000
    13.9244     7832.00000
    13.9376     7856.00000
    13.9507     7800.00000
    13.9638     8056.00000
    13.9769     7820.00000
    13.9901     7705.00000
    14.0032     7824.00000
    14.0163     7924.00000
    14.0295     7852.00000
    14.0426     7927.00000
    14.0557     7889.00000
    14.0689     7994.00000
    14.0820     7877.00000
    14.0951     7965.00000
    14.1082     7893.00000
    14.1214     7916.00000
    14.1345     7935.00000
    14.1476     7986.00000
    14.1608     7790.00000
    14.1739     7852.00000
    14.1870     7742.00000
    14.2002     7948.00000
    14.2133     7976.00000
    14.2264     7743.00000
    14.2395     7822.00000
    14.2527     7722.00000
    14.2658     7789.00000
    14.2789     8033.00000
    14.2921     8102.00000
    14.3052     7943.00000
    14.3183     7835.00000
    14.3315     7687.00000
    14.3446     7818.00000
    14.3577     7874.00000
    14.3708     7973.00000
    14.3840     7891.00000
    14.3971     8051.00000
    14.4102     8113.00000
    14.4234     8021.00000
    14.4365     8054.00000
    14.4496     8064.00000
    14.4628     8182.00000
    14.4759     8427.00000
    14.4890     9056.00000
    14.5022     9041.00000
    14.5153     9684.00000
    14.5284     9440.00000
    14.5415     9414.00000
    14.5547     9256.00000
    14.5678     9061.00000
    14.5809     8866.00000
    14.5941     8717.00000
    14.6072     8366.00000
    14.6203     8239.00000
    14.6335     7885.00000
    14.6466     7915.00000
    14.6597     7682.00000
    14.6728     7824.00000
    14.6860     7730.00000
    14.6991     7844.00000
    14.7122     7625.00000
    14.7254     7831.00000
    14.7385     7795.00000
    14.7516     7953.00000
    14.7648     7695.00000
    14.7779     7873.00000
    14.7910     7641.00000
    14.8041     7948.00000
    14.8173     7725.00000
    14.8304     7829.00000
    14.8435     7532.00000
    14.8567     7801.00000
    14.8698     7692.00000
    14.8829     7626.00000
    14.8961     7832.00000
    14.9092     7874.00000
    14.9223     7768.00000
    14.9355     7664.00000
    14.9486     7743.00000
    14.9617     7740.00000
    14.9748     7659.00000
    14.9880     7663.00000
    15.0011     7812.00000
    15.0142     7738.00000
    15.0274     7495.00000
    15.0405     7801.00000
    15.0536     7748.00000
    15.0668     7461.00000
    15.0799     7599.00000
    15.0930     7806.00000
    15.1061     7641.00000
    15.1193     7675.00000
    15.1324     7816.00000
    15.1455     7551.00000
    15.1587     7749.00000
    15.1718     7673.00000
    15.1849     7570.00000
    15.1981     7697.00000
    15.2112     7590.00000
    15.2243     7515.00000
    15.2374     7531.00000
    15.2506     7717.00000
    15.2637     7708.00000
    15.2768     7664.00000
    15.2900     7603.00000
    15.3031     7694.00000
    15.3162     7727.00000
    15.3294     7649.00000
    15.3425     7723.00000
    15.3556     7650.00000
    15.3688     7571.00000
    15.3819     7882.00000
    15.3950     7896.00000
    15.4081     7841.00000
    15.4213     7509.00000
    15.4344     7630.00000
    15.4475     7592.00000
    15.4607     7697.00000
    15.4738     7618.00000
    15.4869     7798.00000
    15.5001     7766.00000
    15.5132     7633.00000
    15.5263     7674.00000
    15.5394     7612.00000
    15.5526     7541.00000
    15.5657     7575.00000
    15.5788     7699.00000
    15.5920     7635.00000
    15.6051     7638.00000
    15.6182     7653.00000
    15.6314     7649.00000
    15.6445     7792.00000
    15.6576     7498.00000
    15.6707     7557.00000
    15.6839     7672.00000
    15.6970     7689.00000
    15.7101     7511.00000
    15.7233     7563.00000
    15.7364     7681.00000
    15.7495     7820.00000
    15.7627     7742.00000
    15.7758     7783.00000
    15.7889     7813.00000
    15.8021     7567.00000
    15.8152     7633.00000
    15.8283     7694.00000
    15.8414     7522.00000
    15.8546     7703.00000
    15.8677     7478.00000
    15.8808     7783.00000
    15.8940     7632.00000
    15.9071     7592.00000
    15.9202     7705.00000
    15.9334     7642.00000
    15.9465     7681.00000
    15.9596     7965.00000
    15.9727     7703.00000
    15.9859     7800.00000
    15.9990     7836.00000
    16.0121     7845.00000
    16.0253     7577.00000
    16.0384     7785.00000
    16.0515     7675.00000
    16.0647     7635.00000
    16.0778     7594.00000
    16.0909     7556.00000
    16.1040     7528.00000
    16.1172     7510.00000
    16.1303     7724.00000
    16.1434     7643.00000
    16.1566     7535.00000
    16.1697     7754.00000
    16.1828     7555.00000
    16.1960     7594.00000
    16.2091     7725.00000
    16.2222     7701.00000
    16.2353     7586.00000
    16.2485     7507.00000
    16.2616     7571.00000
    16.2747     7570.00000
    16.2879     7319.00000
    16.3010     7460.00000
    16.3141     7610.00000
    16.3273     7554.00000
    16.3404     7706.00000
    16.3535     7707.00000
    16.3667     7777.00000
    16.3798     7581.00000
    16.3929     7639.00000
    16.4060     7755.00000
    16.4192     7673.00000
    16.4323     7729.00000
    16.4454     7611.00000
    16.4586     7697.00000
    16.4717     7654.00000
    16.4848     7722.00000
    16.4980     7629.00000
    16.5111     7617.00000
    16.5242     7590.00000
    16.5373     7695.00000
    16.5505     7507.00000
    16.5636     7528.00000
    16.5767     7522.00000
    16.5899     7431.00000
    16.6030     7375.00000
    16.6161     7488.00000
    16.6293     7485.00000
    16.6424     7591.00000
    16.6555     7616.00000
    16.6686     7441.00000
    16.6818     7691.00000
    16.6949     7633.00000
    16.7080     7729.00000
    16.7212     7779.00000
    16.7343     7685.00000
    16.7474     7812.00000
    16.7606     7752.00000
    16.7737     7940.00000
    16.7868     7881.00000
    16.8000     7898.00000
    16.8131     7935.00000
    16.8262     7869.00000
    16.8393     8041.00000
    16.8525     7849.00000
    16.8656     7801.00000
    16.8787     7709.00000
    16.8919     7791.00000
    16.9050     7651.00000
    16.9181     7646.00000
    16.9313     7542.00000
    16.9444     7666.00000
    16.9575     7481.00000
    16.9706     7353.00000
    16.9838     7406.00000
    16.9969     7283.00000
    17.0100     7429.00000
    17.0232     7659.00000
    17.0363     7460.00000
    17.0494     7426.00000
    17.0626     7392.00000
    17.0757     7428.00000
    17.0888     7389.00000
    17.1019     7570.00000
    17.1151     7515.00000
    17.1282     7345.00000
    17.1413     7614.00000
    17.1545     7672.00000
    17.1676     7268.00000
    17.1807     7350.00000
    17.1939     7507.00000
    17.2070     7368.00000
    17.2201     7445.00000
    17.2333     7576.00000
    17.2464     7403.00000
    17.2595     7498.00000
    17.2726     7330.00000
    17.2858     7368.00000
    17.2989     7402.00000
    17.3120     7434.00000
    17.3252     7459.00000
    17.3383     7398.00000
    17.3514     7503.00000
    17.3646     7447.00000
    17.3777     7571.00000
    17.3908     7229.00000
    17.4039     7374.00000
    17.4171     7280.00000
    17.4302     7315.00000
    17.4433     7344.00000
    17.4565     7379.00000
    17.4696     7414.00000
    17.4827     7345.00000
    17.4959     7354.00000
    17.5090     7407.00000
    17.5221     7456.00000
    17.5352     7184.00000
    17.5484     7359.00000
    17.5615     7368.00000
    17.5746     7355.00000
    17.5878     7417.00000
    17.6009     7342.00000
    17.6140     7395.00000
    17.6272     7223.00000
    17.6403     7452.00000
    17.6534     7420.00000
    17.6666     7330.00000
    17.6797     7417.00000
    17.6928     7337.00000
    17.7059     7390.00000
    17.7191     7616.00000
    17.7322     7418.00000
    17.7453     7482.00000
    17.7585     7259.00000
    17.7716     7309.00000
    17.7847     7465.00000
    17.7979     7231.00000
    17.8110     7295.00000
    17.8241     7339.00000
    17.8372     7304.00000
    17.8504     7400.00000
    17.8635     7560.00000
    17.8766     7530.00000
    17.8898     7564.00000
    17.9029     7584.00000
    17.9160     7521.00000
    17.9292     7450.00000
    17.9423     7408.00000
    17.9554     7465.00000
    17.9685     7264.00000
    17.9817     7456.00000
    17.9948     7381.00000
    18.0079     7031.00000
    18.0211     7210.00000
    18.0342     7521.00000
    18.0473     7323.00000
    18.0605     7293.00000
    18.0736     7335.00000
    18.0867     7303.00000
    18.0998     7181.00000
    18.1130     7189.00000
    18.1261     7332.00000
    18.1392     7181.00000
    18.1524     7377.00000
    18.1655     7187.00000
    18.1786     7180.00000
    18.1918     7181.00000
    18.2049     7267.00000
    18.2180     7155.00000
    18.2312     7188.00000
    18.2443     7263.00000
    18.2574     7316.00000
    18.2705     7380.00000
    18.2837     7327.00000
    18.2968     7333.00000
    18.3099     7248.00000
    18.3231     7084.00000
    18.3362     7314.00000
    18.3493     7178.00000
    18.3625     7061.00000
    18.3756     7220.00000
    18.3887     7053.00000
    18.4018     7360.00000
    18.4150     7106.00000
    18.4281     7252.00000
    18.4412     7109.00000
    18.4544     7108.00000
    18.4675     7212.00000
    18.4806     7355.00000
    18.4938     7343.00000
    18.5069     7357.00000
    18.5200     7063.00000
    18.5331     7228.00000
    18.5463     7139.00000
    18.5594     7209.00000
    18.5725     7199.00000
    18.5857     7115.00000
    18.5988     7437.00000
    18.6119     7300.00000
    18.6251     7288.00000
    18.6382     7264.00000
    18.6513     7216.00000
    18.6645     7286.00000
    18.6776     7020.00000
    18.6907     7224.00000
    18.7038     7226.00000
    18.7170     7159.00000
    18.7301     7142.00000
    18.7432     7313.00000
    18.7564     7272.00000
    18.7695     7038.00000
    18.7826     7245.00000
    18.7958     7264.00000
    18.8089     7163.00000
    18.8220     7105.00000
    18.8351     7139.00000
    18.8483     7055.00000
    18.8614     7343.00000
    18.8745     7331.00000
    18.8877     7064.00000
    18.9008     7317.00000
    18.9139     7199.00000
    18.9271     7195.00000
    18.9402     7213.00000
