! Initial file:   D:\ZAKARY_OUAIL\MA_THESE\Deuxième_année_de_thèse\DRX\Affinement_DRX\Fullprof\Thermodiff3-nuit_NaNbO2F2\250°C\NaNbO2F2-Lent_250°C.xrdml
! Initial format:  58
! WAVE (A):      1.54060     1.54060     1.00000
! REM : data have been multiplied by     1.0000
! X_data : 2 Theta (deg.)                                                                                                                                                                                                                                                  
! Y_data : Intensity (arb. units)                                                                                                                                                                                                                                          
!     X         Y
!--------------------------------------------------------------------------------
    10.0116     7409.00000
    10.0247     7627.00000
    10.0379     7484.00000
    10.0510     7401.00000
    10.0641     7422.00000
    10.0772     7572.00000
    10.0904     7473.00000
    10.1035     7555.00000
    10.1166     7739.00000
    10.1298     7680.00000
    10.1429     7877.00000
    10.1560     7801.00000
    10.1692     7768.00000
    10.1823     7742.00000
    10.1954     7632.00000
    10.2086     7854.00000
    10.2217     7655.00000
    10.2348     7777.00000
    10.2479     7690.00000
    10.2611     7597.00000
    10.2742     7459.00000
    10.2873     7793.00000
    10.3005     7582.00000
    10.3136     7706.00000
    10.3267     7565.00000
    10.3399     7681.00000
    10.3530     7524.00000
    10.3661     7477.00000
    10.3792     7650.00000
    10.3924     7600.00000
    10.4055     7663.00000
    10.4186     7474.00000
    10.4318     7748.00000
    10.4449     7617.00000
    10.4580     7552.00000
    10.4712     7651.00000
    10.4843     7602.00000
    10.4974     7656.00000
    10.5105     7537.00000
    10.5237     7596.00000
    10.5368     7684.00000
    10.5499     7693.00000
    10.5631     7560.00000
    10.5762     7585.00000
    10.5893     7496.00000
    10.6025     7382.00000
    10.6156     7515.00000
    10.6287     7563.00000
    10.6418     7595.00000
    10.6550     7557.00000
    10.6681     7590.00000
    10.6812     7530.00000
    10.6944     7638.00000
    10.7075     7637.00000
    10.7206     7613.00000
    10.7338     7662.00000
    10.7469     7566.00000
    10.7600     7463.00000
    10.7732     7632.00000
    10.7863     7715.00000
    10.7994     7759.00000
    10.8125     7693.00000
    10.8257     7698.00000
    10.8388     7668.00000
    10.8519     7786.00000
    10.8651     7915.00000
    10.8782     8001.00000
    10.8913     7933.00000
    10.9045     7997.00000
    10.9176     8215.00000
    10.9307     8112.00000
    10.9438     7949.00000
    10.9570     8157.00000
    10.9701     8080.00000
    10.9832     8339.00000
    10.9964     8276.00000
    11.0095     8449.00000
    11.0226     8356.00000
    11.0358     8425.00000
    11.0489     8585.00000
    11.0620     8978.00000
    11.0751     8981.00000
    11.0883     9535.00000
    11.1014     9932.00000
    11.1145    10534.00000
    11.1277    11273.00000
    11.1408    12606.00000
    11.1539    15004.00000
    11.1671    17975.00000
    11.1802    22741.00000
    11.1933    29030.00000
    11.2065    40695.00000
    11.2196    56892.00000
    11.2327    72255.00000
    11.2458    81629.00000
    11.2590    78496.00000
    11.2721    67124.00000
    11.2852    51166.00000
    11.2984    36079.00000
    11.3115    24069.00000
    11.3246    16405.00000
    11.3378    12508.00000
    11.3509    10112.00000
    11.3640     9389.00000
    11.3771     8873.00000
    11.3903     8665.00000
    11.4034     8584.00000
    11.4165     8334.00000
    11.4297     8468.00000
    11.4428     8203.00000
    11.4559     8103.00000
    11.4691     8048.00000
    11.4822     7907.00000
    11.4953     7787.00000
    11.5084     7717.00000
    11.5216     7623.00000
    11.5347     7916.00000
    11.5478     7603.00000
    11.5610     7654.00000
    11.5741     7549.00000
    11.5872     7583.00000
    11.6004     7637.00000
    11.6135     7749.00000
    11.6266     7738.00000
    11.6398     7627.00000
    11.6529     7653.00000
    11.6660     7534.00000
    11.6791     7556.00000
    11.6923     7784.00000
    11.7054     7687.00000
    11.7185     7684.00000
    11.7317     7880.00000
    11.7448     7790.00000
    11.7579     7927.00000
    11.7711     7724.00000
    11.7842     7817.00000
    11.7973     8056.00000
    11.8104     7931.00000
    11.8236     7954.00000
    11.8367     7937.00000
    11.8498     7890.00000
    11.8630     7918.00000
    11.8761     7887.00000
    11.8892     7918.00000
    11.9024     8021.00000
    11.9155     7902.00000
    11.9286     7966.00000
    11.9417     7940.00000
    11.9549     7930.00000
    11.9680     7947.00000
    11.9811     7911.00000
    11.9943     8038.00000
    12.0074     7926.00000
    12.0205     8078.00000
    12.0337     8012.00000
    12.0468     8059.00000
    12.0599     8092.00000
    12.0731     8009.00000
    12.0862     7790.00000
    12.0993     8062.00000
    12.1124     7962.00000
    12.1256     8011.00000
    12.1387     8096.00000
    12.1518     7954.00000
    12.1650     8084.00000
    12.1781     7998.00000
    12.1912     8040.00000
    12.2044     7944.00000
    12.2175     8176.00000
    12.2306     8064.00000
    12.2437     7917.00000
    12.2569     7941.00000
    12.2700     8069.00000
    12.2831     7996.00000
    12.2963     8046.00000
    12.3094     7996.00000
    12.3225     7915.00000
    12.3357     8102.00000
    12.3488     8040.00000
    12.3619     8083.00000
    12.3750     8238.00000
    12.3882     8051.00000
    12.4013     7755.00000
    12.4144     8113.00000
    12.4276     8192.00000
    12.4407     7964.00000
    12.4538     7995.00000
    12.4670     7934.00000
    12.4801     7942.00000
    12.4932     8204.00000
    12.5063     8033.00000
    12.5195     7931.00000
    12.5326     7923.00000
    12.5457     7977.00000
    12.5589     8164.00000
    12.5720     7972.00000
    12.5851     7944.00000
    12.5983     7883.00000
    12.6114     8055.00000
    12.6245     7859.00000
    12.6377     7904.00000
    12.6508     8033.00000
    12.6639     7886.00000
    12.6770     7917.00000
    12.6902     8071.00000
    12.7033     8139.00000
    12.7164     8037.00000
    12.7296     7772.00000
    12.7427     8207.00000
    12.7558     8102.00000
    12.7690     7841.00000
    12.7821     7968.00000
    12.7952     8126.00000
    12.8083     8015.00000
    12.8215     8025.00000
    12.8346     7825.00000
    12.8477     7949.00000
    12.8609     7843.00000
    12.8740     8022.00000
    12.8871     8056.00000
    12.9003     8016.00000
    12.9134     7851.00000
    12.9265     7977.00000
    12.9396     7967.00000
    12.9528     7926.00000
    12.9659     7941.00000
    12.9790     7915.00000
    12.9922     7865.00000
    13.0053     7916.00000
    13.0184     7852.00000
    13.0316     7865.00000
    13.0447     7851.00000
    13.0578     7895.00000
    13.0710     7974.00000
    13.0841     7970.00000
    13.0972     7838.00000
    13.1103     7906.00000
    13.1235     7842.00000
    13.1366     8066.00000
    13.1497     7980.00000
    13.1629     7847.00000
    13.1760     7834.00000
    13.1891     7957.00000
    13.2023     7808.00000
    13.2154     8019.00000
    13.2285     8035.00000
    13.2416     7761.00000
    13.2548     7937.00000
    13.2679     7894.00000
    13.2810     7631.00000
    13.2942     7755.00000
    13.3073     7939.00000
    13.3204     7754.00000
    13.3336     7695.00000
    13.3467     7678.00000
    13.3598     7794.00000
    13.3729     7953.00000
    13.3861     7965.00000
    13.3992     7758.00000
    13.4123     7918.00000
    13.4255     7830.00000
    13.4386     7821.00000
    13.4517     7768.00000
    13.4649     7961.00000
    13.4780     7746.00000
    13.4911     7833.00000
    13.5043     8030.00000
    13.5174     7892.00000
    13.5305     7737.00000
    13.5436     7783.00000
    13.5568     7819.00000
    13.5699     7783.00000
    13.5830     7671.00000
    13.5962     7544.00000
    13.6093     7724.00000
    13.6224     7741.00000
    13.6356     7913.00000
    13.6487     7878.00000
    13.6618     7885.00000
    13.6749     7984.00000
    13.6881     7991.00000
    13.7012     8097.00000
    13.7143     8053.00000
    13.7275     8009.00000
    13.7406     7899.00000
    13.7537     8035.00000
    13.7669     7935.00000
    13.7800     7948.00000
    13.7931     7854.00000
    13.8062     7844.00000
    13.8194     7794.00000
    13.8325     7804.00000
    13.8456     7760.00000
    13.8588     7880.00000
    13.8719     7946.00000
    13.8850     7967.00000
    13.8982     7905.00000
    13.9113     7856.00000
    13.9244     7819.00000
    13.9376     7878.00000
    13.9507     7781.00000
    13.9638     7966.00000
    13.9769     7929.00000
    13.9901     7761.00000
    14.0032     7829.00000
    14.0163     7598.00000
    14.0295     7785.00000
    14.0426     7914.00000
    14.0557     7665.00000
    14.0689     7791.00000
    14.0820     7869.00000
    14.0951     7790.00000
    14.1082     7883.00000
    14.1214     7914.00000
    14.1345     7787.00000
    14.1476     7769.00000
    14.1608     8010.00000
    14.1739     7943.00000
    14.1870     7896.00000
    14.2002     7823.00000
    14.2133     7904.00000
    14.2264     7819.00000
    14.2395     7775.00000
    14.2527     7832.00000
    14.2658     7848.00000
    14.2789     7888.00000
    14.2921     7916.00000
    14.3052     7942.00000
    14.3183     7909.00000
    14.3315     7839.00000
    14.3446     7726.00000
    14.3577     7852.00000
    14.3708     7999.00000
    14.3840     7916.00000
    14.3971     7942.00000
    14.4102     8138.00000
    14.4234     7965.00000
    14.4365     8010.00000
    14.4496     8061.00000
    14.4628     8205.00000
    14.4759     8504.00000
    14.4890     8798.00000
    14.5022     9202.00000
    14.5153     9482.00000
    14.5284     9498.00000
    14.5415     9592.00000
    14.5547     9376.00000
    14.5678     9121.00000
    14.5809     8859.00000
    14.5941     8447.00000
    14.6072     8241.00000
    14.6203     8014.00000
    14.6335     7945.00000
    14.6466     7987.00000
    14.6597     7699.00000
    14.6728     7744.00000
    14.6860     7796.00000
    14.6991     7813.00000
    14.7122     7863.00000
    14.7254     7681.00000
    14.7385     7837.00000
    14.7516     7839.00000
    14.7648     7770.00000
    14.7779     7626.00000
    14.7910     7535.00000
    14.8041     7737.00000
    14.8173     7697.00000
    14.8304     7836.00000
    14.8435     7728.00000
    14.8567     7605.00000
    14.8698     7631.00000
    14.8829     7759.00000
    14.8961     7764.00000
    14.9092     7601.00000
    14.9223     7764.00000
    14.9355     7679.00000
    14.9486     7699.00000
    14.9617     7770.00000
    14.9748     7669.00000
    14.9880     7686.00000
    15.0011     7764.00000
    15.0142     7663.00000
    15.0274     7526.00000
    15.0405     7713.00000
    15.0536     7708.00000
    15.0668     7873.00000
    15.0799     7734.00000
    15.0930     7796.00000
    15.1061     7786.00000
    15.1193     7807.00000
    15.1324     7748.00000
    15.1455     7635.00000
    15.1587     7574.00000
    15.1718     7665.00000
    15.1849     7588.00000
    15.1981     7543.00000
    15.2112     7728.00000
    15.2243     7659.00000
    15.2374     7621.00000
    15.2506     7764.00000
    15.2637     7728.00000
    15.2768     7662.00000
    15.2900     7570.00000
    15.3031     7582.00000
    15.3162     7734.00000
    15.3294     7686.00000
    15.3425     7611.00000
    15.3556     7664.00000
    15.3688     7869.00000
    15.3819     7682.00000
    15.3950     7730.00000
    15.4081     7666.00000
    15.4213     7787.00000
    15.4344     7664.00000
    15.4475     7706.00000
    15.4607     7585.00000
    15.4738     7816.00000
    15.4869     7660.00000
    15.5001     7614.00000
    15.5132     7753.00000
    15.5263     7590.00000
    15.5394     7604.00000
    15.5526     7547.00000
    15.5657     7808.00000
    15.5788     7687.00000
    15.5920     7620.00000
    15.6051     7385.00000
    15.6182     7597.00000
    15.6314     7504.00000
    15.6445     7559.00000
    15.6576     7559.00000
    15.6707     7590.00000
    15.6839     7610.00000
    15.6970     7773.00000
    15.7101     7664.00000
    15.7233     7585.00000
    15.7364     7708.00000
    15.7495     7798.00000
    15.7627     7525.00000
    15.7758     7509.00000
    15.7889     7635.00000
    15.8021     7789.00000
    15.8152     7813.00000
    15.8283     7674.00000
    15.8414     7669.00000
    15.8546     7721.00000
    15.8677     7742.00000
    15.8808     7782.00000
    15.8940     7770.00000
    15.9071     7575.00000
    15.9202     7467.00000
    15.9334     7622.00000
    15.9465     7677.00000
    15.9596     7679.00000
    15.9727     7608.00000
    15.9859     7612.00000
    15.9990     7642.00000
    16.0121     7720.00000
    16.0253     7874.00000
    16.0384     7811.00000
    16.0515     7644.00000
    16.0647     7783.00000
    16.0778     7601.00000
    16.0909     7432.00000
    16.1040     7682.00000
    16.1172     7489.00000
    16.1303     7575.00000
    16.1434     7586.00000
    16.1566     7644.00000
    16.1697     7720.00000
    16.1828     7657.00000
    16.1960     7449.00000
    16.2091     7595.00000
    16.2222     7708.00000
    16.2353     7660.00000
    16.2485     7597.00000
    16.2616     7426.00000
    16.2747     7698.00000
    16.2879     7563.00000
    16.3010     7420.00000
    16.3141     7756.00000
    16.3273     7865.00000
    16.3404     7630.00000
    16.3535     7586.00000
    16.3667     7772.00000
    16.3798     7801.00000
    16.3929     7613.00000
    16.4060     7436.00000
    16.4192     7667.00000
    16.4323     7742.00000
    16.4454     7673.00000
    16.4586     7657.00000
    16.4717     7738.00000
    16.4848     7553.00000
    16.4980     7701.00000
    16.5111     7506.00000
    16.5242     7665.00000
    16.5373     7618.00000
    16.5505     7504.00000
    16.5636     7404.00000
    16.5767     7484.00000
    16.5899     7497.00000
    16.6030     7575.00000
    16.6161     7514.00000
    16.6293     7508.00000
    16.6424     7492.00000
    16.6555     7484.00000
    16.6686     7482.00000
    16.6818     7568.00000
    16.6949     7675.00000
    16.7080     7667.00000
    16.7212     7652.00000
    16.7343     7793.00000
    16.7474     7737.00000
    16.7606     7702.00000
    16.7737     7884.00000
    16.7868     8066.00000
    16.8000     8035.00000
    16.8131     8061.00000
    16.8262     7874.00000
    16.8393     8087.00000
    16.8525     7775.00000
    16.8656     7852.00000
    16.8787     7702.00000
    16.8919     7656.00000
    16.9050     7455.00000
    16.9181     7514.00000
    16.9313     7458.00000
    16.9444     7502.00000
    16.9575     7472.00000
    16.9706     7601.00000
    16.9838     7519.00000
    16.9969     7472.00000
    17.0100     7432.00000
    17.0232     7369.00000
    17.0363     7485.00000
    17.0494     7552.00000
    17.0626     7444.00000
    17.0757     7499.00000
    17.0888     7512.00000
    17.1019     7619.00000
    17.1151     7387.00000
    17.1282     7781.00000
    17.1413     7607.00000
    17.1545     7556.00000
    17.1676     7560.00000
    17.1807     7171.00000
    17.1939     7413.00000
    17.2070     7653.00000
    17.2201     7583.00000
    17.2333     7496.00000
    17.2464     7590.00000
    17.2595     7529.00000
    17.2726     7467.00000
    17.2858     7398.00000
    17.2989     7472.00000
    17.3120     7550.00000
    17.3252     7268.00000
    17.3383     7383.00000
    17.3514     7535.00000
    17.3646     7269.00000
    17.3777     7278.00000
    17.3908     7663.00000
    17.4039     7255.00000
    17.4171     7296.00000
    17.4302     7292.00000
    17.4433     7316.00000
    17.4565     7404.00000
    17.4696     7640.00000
    17.4827     7335.00000
    17.4959     7350.00000
    17.5090     7298.00000
    17.5221     7486.00000
    17.5352     7308.00000
    17.5484     7330.00000
    17.5615     7396.00000
    17.5746     7275.00000
    17.5878     7301.00000
    17.6009     7499.00000
    17.6140     7306.00000
    17.6272     7483.00000
    17.6403     7256.00000
    17.6534     7218.00000
    17.6666     7303.00000
    17.6797     7412.00000
    17.6928     7299.00000
    17.7059     7314.00000
    17.7191     7330.00000
    17.7322     7434.00000
    17.7453     7312.00000
    17.7585     7267.00000
    17.7716     7393.00000
    17.7847     7450.00000
    17.7979     7498.00000
    17.8110     7329.00000
    17.8241     7452.00000
    17.8372     7301.00000
    17.8504     7347.00000
    17.8635     7491.00000
    17.8766     7417.00000
    17.8898     7443.00000
    17.9029     7580.00000
    17.9160     7644.00000
    17.9292     7542.00000
    17.9423     7461.00000
    17.9554     7476.00000
    17.9685     7313.00000
    17.9817     7449.00000
    17.9948     7306.00000
    18.0079     7236.00000
    18.0211     7533.00000
    18.0342     7346.00000
    18.0473     7310.00000
    18.0605     7562.00000
    18.0736     7258.00000
    18.0867     7277.00000
    18.0998     7198.00000
    18.1130     7169.00000
    18.1261     7316.00000
    18.1392     7212.00000
    18.1524     7162.00000
    18.1655     7265.00000
    18.1786     7266.00000
    18.1918     7265.00000
    18.2049     7328.00000
    18.2180     7364.00000
    18.2312     7147.00000
    18.2443     7340.00000
    18.2574     7328.00000
    18.2705     7301.00000
    18.2837     7370.00000
    18.2968     7083.00000
    18.3099     7236.00000
    18.3231     7389.00000
    18.3362     7409.00000
    18.3493     7245.00000
    18.3625     7270.00000
    18.3756     7216.00000
    18.3887     7277.00000
    18.4018     7224.00000
    18.4150     7125.00000
    18.4281     7309.00000
    18.4412     7328.00000
    18.4544     7379.00000
    18.4675     7330.00000
    18.4806     7369.00000
    18.4938     7384.00000
    18.5069     7097.00000
    18.5200     7313.00000
    18.5331     7325.00000
    18.5463     7305.00000
    18.5594     7285.00000
    18.5725     7073.00000
    18.5857     7227.00000
    18.5988     7202.00000
    18.6119     7210.00000
    18.6251     7099.00000
    18.6382     7106.00000
    18.6513     7169.00000
    18.6645     7229.00000
    18.6776     7185.00000
    18.6907     7122.00000
    18.7038     7366.00000
    18.7170     7005.00000
    18.7301     7173.00000
    18.7432     7224.00000
    18.7564     7236.00000
    18.7695     7079.00000
    18.7826     7393.00000
    18.7958     7176.00000
    18.8089     7172.00000
    18.8220     7107.00000
    18.8351     7203.00000
    18.8483     7109.00000
    18.8614     7121.00000
    18.8745     7131.00000
    18.8877     7053.00000
    18.9008     7181.00000
    18.9139     7334.00000
    18.9271     7191.00000
    18.9402     7113.00000
