! Initial file:   D:\ZAKARY_OUAIL\MA_THESE\Deuxième_année_de_thèse\DRX\Affinement_DRX\Fullprof\Thermodiff3-nuit_NaNbO2F2\25°C\NaNbO2F2-Lent_25°C.xrdml
! Initial format:  58
! WAVE (A):      1.54060     1.54060     1.00000
! REM : data have been multiplied by     1.0000
! X_data : 2 Theta (deg.)                                                                                                                                                                                                                                                  
! Y_data : Intensity (arb. units)                                                                                                                                                                                                                                          
!     X         Y
!--------------------------------------------------------------------------------
    10.0116     8374.00000
    10.0247     8314.00000
    10.0379     8314.00000
    10.0510     8388.00000
    10.0641     8369.00000
    10.0772     8315.00000
    10.0904     8332.00000
    10.1035     8416.00000
    10.1166     8334.00000
    10.1298     8286.00000
    10.1429     8552.00000
    10.1560     8396.00000
    10.1692     8409.00000
    10.1823     8572.00000
    10.1954     8447.00000
    10.2086     8497.00000
    10.2217     8434.00000
    10.2348     8363.00000
    10.2479     8450.00000
    10.2611     8436.00000
    10.2742     8401.00000
    10.2873     8329.00000
    10.3005     8435.00000
    10.3136     8352.00000
    10.3267     8445.00000
    10.3399     8278.00000
    10.3530     8395.00000
    10.3661     8428.00000
    10.3792     8484.00000
    10.3924     8525.00000
    10.4055     8224.00000
    10.4186     8176.00000
    10.4318     8293.00000
    10.4449     8319.00000
    10.4580     8411.00000
    10.4712     8418.00000
    10.4843     8485.00000
    10.4974     8117.00000
    10.5105     8361.00000
    10.5237     8167.00000
    10.5368     8480.00000
    10.5499     8541.00000
    10.5631     8351.00000
    10.5762     8268.00000
    10.5893     8355.00000
    10.6025     8143.00000
    10.6156     8366.00000
    10.6287     8405.00000
    10.6418     8217.00000
    10.6550     8334.00000
    10.6681     8273.00000
    10.6812     8177.00000
    10.6944     8446.00000
    10.7075     8221.00000
    10.7206     8215.00000
    10.7338     8472.00000
    10.7469     8441.00000
    10.7600     8300.00000
    10.7732     8265.00000
    10.7863     8288.00000
    10.7994     8248.00000
    10.8125     8535.00000
    10.8257     8341.00000
    10.8388     8214.00000
    10.8519     8280.00000
    10.8651     8632.00000
    10.8782     8648.00000
    10.8913     8634.00000
    10.9045     8766.00000
    10.9176     8629.00000
    10.9307     8710.00000
    10.9438     8771.00000
    10.9570     8951.00000
    10.9701     8906.00000
    10.9832     8960.00000
    10.9964     8803.00000
    11.0095     9012.00000
    11.0226     9072.00000
    11.0358     9036.00000
    11.0489     9142.00000
    11.0620     9160.00000
    11.0751     9442.00000
    11.0883     9529.00000
    11.1014     9851.00000
    11.1145    10151.00000
    11.1277    10559.00000
    11.1408    11107.00000
    11.1539    12227.00000
    11.1671    13070.00000
    11.1802    14998.00000
    11.1933    17685.00000
    11.2065    22412.00000
    11.2196    29291.00000
    11.2327    40328.00000
    11.2458    54115.00000
    11.2590    68974.00000
    11.2721    78194.00000
    11.2852    75944.00000
    11.2984    67133.00000
    11.3115    52872.00000
    11.3246    38053.00000
    11.3378    26160.00000
    11.3509    18072.00000
    11.3640    13396.00000
    11.3771    11225.00000
    11.3903    10030.00000
    11.4034     9510.00000
    11.4165     9562.00000
    11.4297     9219.00000
    11.4428     9091.00000
    11.4559     8707.00000
    11.4691     8843.00000
    11.4822     8635.00000
    11.4953     8644.00000
    11.5084     8528.00000
    11.5216     8493.00000
    11.5347     8393.00000
    11.5478     8433.00000
    11.5610     8355.00000
    11.5741     8437.00000
    11.5872     8438.00000
    11.6004     8316.00000
    11.6135     8262.00000
    11.6266     8435.00000
    11.6398     8285.00000
    11.6529     8362.00000
    11.6660     8347.00000
    11.6791     8411.00000
    11.6923     8375.00000
    11.7054     8295.00000
    11.7185     8275.00000
    11.7317     8278.00000
    11.7448     8468.00000
    11.7579     8658.00000
    11.7711     8427.00000
    11.7842     8547.00000
    11.7973     8427.00000
    11.8104     8542.00000
    11.8236     8731.00000
    11.8367     8698.00000
    11.8498     8619.00000
    11.8630     8818.00000
    11.8761     8581.00000
    11.8892     8809.00000
    11.9024     8480.00000
    11.9155     8367.00000
    11.9286     8591.00000
    11.9417     8520.00000
    11.9549     8557.00000
    11.9680     8738.00000
    11.9811     8582.00000
    11.9943     8480.00000
    12.0074     8497.00000
    12.0205     8693.00000
    12.0337     8552.00000
    12.0468     8497.00000
    12.0599     8471.00000
    12.0731     8426.00000
    12.0862     8525.00000
    12.0993     8687.00000
    12.1124     8605.00000
    12.1256     8571.00000
    12.1387     8551.00000
    12.1518     8586.00000
    12.1650     8760.00000
    12.1781     8666.00000
    12.1912     8520.00000
    12.2044     8574.00000
    12.2175     8677.00000
    12.2306     8807.00000
    12.2437     8621.00000
    12.2569     8869.00000
    12.2700     8682.00000
    12.2831     8616.00000
    12.2963     8773.00000
    12.3094     8745.00000
    12.3225     8775.00000
    12.3357     8719.00000
    12.3488     8694.00000
    12.3619     8682.00000
    12.3750     8651.00000
    12.3882     8630.00000
    12.4013     8740.00000
    12.4144     8605.00000
    12.4276     8647.00000
    12.4407     8640.00000
    12.4538     8559.00000
    12.4670     8604.00000
    12.4801     8712.00000
    12.4932     8575.00000
    12.5063     8608.00000
    12.5195     8767.00000
    12.5326     8520.00000
    12.5457     8631.00000
    12.5589     8590.00000
    12.5720     8550.00000
    12.5851     8563.00000
    12.5983     8674.00000
    12.6114     8573.00000
    12.6245     8642.00000
    12.6377     8404.00000
    12.6508     8584.00000
    12.6639     8703.00000
    12.6770     8606.00000
    12.6902     8759.00000
    12.7033     8640.00000
    12.7164     8346.00000
    12.7296     8624.00000
    12.7427     8608.00000
    12.7558     8565.00000
    12.7690     8561.00000
    12.7821     8528.00000
    12.7952     8596.00000
    12.8083     8723.00000
    12.8215     8613.00000
    12.8346     8643.00000
    12.8477     8657.00000
    12.8609     8703.00000
    12.8740     8589.00000
    12.8871     8650.00000
    12.9003     8560.00000
    12.9134     8442.00000
    12.9265     8501.00000
    12.9396     8484.00000
    12.9528     8511.00000
    12.9659     8435.00000
    12.9790     8641.00000
    12.9922     8308.00000
    13.0053     8338.00000
    13.0184     8596.00000
    13.0316     8352.00000
    13.0447     8601.00000
    13.0578     8411.00000
    13.0710     8536.00000
    13.0841     8431.00000
    13.0972     8446.00000
    13.1103     8512.00000
    13.1235     8559.00000
    13.1366     8413.00000
    13.1497     8657.00000
    13.1629     8535.00000
    13.1760     8262.00000
    13.1891     8413.00000
    13.2023     8512.00000
    13.2154     8455.00000
    13.2285     8555.00000
    13.2416     8428.00000
    13.2548     8374.00000
    13.2679     8378.00000
    13.2810     8376.00000
    13.2942     8574.00000
    13.3073     8364.00000
    13.3204     8221.00000
    13.3336     8302.00000
    13.3467     8369.00000
    13.3598     8525.00000
    13.3729     8286.00000
    13.3861     8272.00000
    13.3992     8540.00000
    13.4123     8195.00000
    13.4255     8206.00000
    13.4386     8466.00000
    13.4517     8466.00000
    13.4649     8165.00000
    13.4780     8335.00000
    13.4911     8139.00000
    13.5043     8293.00000
    13.5174     8392.00000
    13.5305     8260.00000
    13.5436     8310.00000
    13.5568     8290.00000
    13.5699     8391.00000
    13.5830     8237.00000
    13.5962     8285.00000
    13.6093     8537.00000
    13.6224     8265.00000
    13.6356     8573.00000
    13.6487     8388.00000
    13.6618     8472.00000
    13.6749     8447.00000
    13.6881     8541.00000
    13.7012     8623.00000
    13.7143     8487.00000
    13.7275     8512.00000
    13.7406     8497.00000
    13.7537     8339.00000
    13.7669     8190.00000
    13.7800     8440.00000
    13.7931     8414.00000
    13.8062     8451.00000
    13.8194     8254.00000
    13.8325     8212.00000
    13.8456     8541.00000
    13.8588     8408.00000
    13.8719     8366.00000
    13.8850     8129.00000
    13.8982     8527.00000
    13.9113     8320.00000
    13.9244     8186.00000
    13.9376     8235.00000
    13.9507     8340.00000
    13.9638     8241.00000
    13.9769     8382.00000
    13.9901     8250.00000
    14.0032     8409.00000
    14.0163     8450.00000
    14.0295     8557.00000
    14.0426     8340.00000
    14.0557     8060.00000
    14.0689     8238.00000
    14.0820     8350.00000
    14.0951     8285.00000
    14.1082     8459.00000
    14.1214     8347.00000
    14.1345     8353.00000
    14.1476     8278.00000
    14.1608     8587.00000
    14.1739     8356.00000
    14.1870     8393.00000
    14.2002     8430.00000
    14.2133     8531.00000
    14.2264     8379.00000
    14.2395     8345.00000
    14.2527     8303.00000
    14.2658     8228.00000
    14.2789     8224.00000
    14.2921     8240.00000
    14.3052     8344.00000
    14.3183     8088.00000
    14.3315     8034.00000
    14.3446     8326.00000
    14.3577     8326.00000
    14.3708     8452.00000
    14.3840     8363.00000
    14.3971     8167.00000
    14.4102     8186.00000
    14.4234     8397.00000
    14.4365     8474.00000
    14.4496     8684.00000
    14.4628     8788.00000
    14.4759     9077.00000
    14.4890     9448.00000
    14.5022     9656.00000
    14.5153     9804.00000
    14.5284     9869.00000
    14.5415     9813.00000
    14.5547     9718.00000
    14.5678     9380.00000
    14.5809     9166.00000
    14.5941     8934.00000
    14.6072     8675.00000
    14.6203     8546.00000
    14.6335     8556.00000
    14.6466     8452.00000
    14.6597     8416.00000
    14.6728     8230.00000
    14.6860     8204.00000
    14.6991     8290.00000
    14.7122     8583.00000
    14.7254     8291.00000
    14.7385     8040.00000
    14.7516     7911.00000
    14.7648     8183.00000
    14.7779     8260.00000
    14.7910     8399.00000
    14.8041     8090.00000
    14.8173     8053.00000
    14.8304     8099.00000
    14.8435     8270.00000
    14.8567     8193.00000
    14.8698     8533.00000
    14.8829     8233.00000
    14.8961     8081.00000
    14.9092     8148.00000
    14.9223     8100.00000
    14.9355     8273.00000
    14.9486     7988.00000
    14.9617     8202.00000
    14.9748     8101.00000
    14.9880     8250.00000
    15.0011     8197.00000
    15.0142     8376.00000
    15.0274     8055.00000
    15.0405     8048.00000
    15.0536     8236.00000
    15.0668     8237.00000
    15.0799     8024.00000
    15.0930     8132.00000
    15.1061     7863.00000
    15.1193     8012.00000
    15.1324     8100.00000
    15.1455     8083.00000
    15.1587     8100.00000
    15.1718     8147.00000
    15.1849     8052.00000
    15.1981     8236.00000
    15.2112     8061.00000
    15.2243     8139.00000
    15.2374     8118.00000
    15.2506     8125.00000
    15.2637     8210.00000
    15.2768     8038.00000
    15.2900     8075.00000
    15.3031     8069.00000
    15.3162     8140.00000
    15.3294     8286.00000
    15.3425     8228.00000
    15.3556     8128.00000
    15.3688     7968.00000
    15.3819     8042.00000
    15.3950     8010.00000
    15.4081     8129.00000
    15.4213     7953.00000
    15.4344     8026.00000
    15.4475     7896.00000
    15.4607     7888.00000
    15.4738     8131.00000
    15.4869     8014.00000
    15.5001     8069.00000
    15.5132     8181.00000
    15.5263     7936.00000
    15.5394     7954.00000
    15.5526     8026.00000
    15.5657     8196.00000
    15.5788     8189.00000
    15.5920     8147.00000
    15.6051     8037.00000
    15.6182     8125.00000
    15.6314     8043.00000
    15.6445     8102.00000
    15.6576     7875.00000
    15.6707     7996.00000
    15.6839     7963.00000
    15.6970     8061.00000
    15.7101     8000.00000
    15.7233     7888.00000
    15.7364     8270.00000
    15.7495     7980.00000
    15.7627     7954.00000
    15.7758     7913.00000
    15.7889     7992.00000
    15.8021     8082.00000
    15.8152     8047.00000
    15.8283     8046.00000
    15.8414     8040.00000
    15.8546     8174.00000
    15.8677     7957.00000
    15.8808     8020.00000
    15.8940     7919.00000
    15.9071     7972.00000
    15.9202     7889.00000
    15.9334     7928.00000
    15.9465     7981.00000
    15.9596     7966.00000
    15.9727     8071.00000
    15.9859     7942.00000
    15.9990     8179.00000
    16.0121     8027.00000
    16.0253     7968.00000
    16.0384     7797.00000
    16.0515     7851.00000
    16.0647     7985.00000
    16.0778     7984.00000
    16.0909     8121.00000
    16.1040     8063.00000
    16.1172     8151.00000
    16.1303     7985.00000
    16.1434     7791.00000
    16.1566     7964.00000
    16.1697     7839.00000
    16.1828     7894.00000
    16.1960     7952.00000
    16.2091     7919.00000
    16.2222     7798.00000
    16.2353     7720.00000
    16.2485     7986.00000
    16.2616     8008.00000
    16.2747     7911.00000
    16.2879     8023.00000
    16.3010     7991.00000
    16.3141     7783.00000
    16.3273     8036.00000
    16.3404     7837.00000
    16.3535     8046.00000
    16.3667     8031.00000
    16.3798     7999.00000
    16.3929     7862.00000
    16.4060     7679.00000
    16.4192     7874.00000
    16.4323     7817.00000
    16.4454     7926.00000
    16.4586     7778.00000
    16.4717     7960.00000
    16.4848     8030.00000
    16.4980     8070.00000
    16.5111     8135.00000
    16.5242     7995.00000
    16.5373     8134.00000
    16.5505     8128.00000
    16.5636     7894.00000
    16.5767     7854.00000
    16.5899     7998.00000
    16.6030     7937.00000
    16.6161     7869.00000
    16.6293     7984.00000
    16.6424     7820.00000
    16.6555     7894.00000
    16.6686     7916.00000
    16.6818     8019.00000
    16.6949     8108.00000
    16.7080     7957.00000
    16.7212     7952.00000
    16.7343     7920.00000
    16.7474     7943.00000
    16.7606     8071.00000
    16.7737     8319.00000
    16.7868     8390.00000
    16.8000     8481.00000
    16.8131     8398.00000
    16.8262     8369.00000
    16.8393     8344.00000
    16.8525     8336.00000
    16.8656     8098.00000
    16.8787     8167.00000
    16.8919     7955.00000
    16.9050     8197.00000
    16.9181     8018.00000
    16.9313     7897.00000
    16.9444     7825.00000
    16.9575     7611.00000
    16.9706     7643.00000
    16.9838     7751.00000
    16.9969     7970.00000
    17.0100     7815.00000
    17.0232     7884.00000
    17.0363     7820.00000
    17.0494     7841.00000
    17.0626     7790.00000
    17.0757     7741.00000
    17.0888     7565.00000
    17.1019     7571.00000
    17.1151     7912.00000
    17.1282     7976.00000
    17.1413     7571.00000
    17.1545     7761.00000
    17.1676     7759.00000
    17.1807     7698.00000
    17.1939     7729.00000
    17.2070     7649.00000
    17.2201     7824.00000
    17.2333     7716.00000
    17.2464     7924.00000
    17.2595     7828.00000
    17.2726     8061.00000
    17.2858     7841.00000
    17.2989     7775.00000
    17.3120     7800.00000
    17.3252     7779.00000
    17.3383     7586.00000
    17.3514     7781.00000
    17.3646     7750.00000
    17.3777     7848.00000
    17.3908     7669.00000
    17.4039     7711.00000
    17.4171     7696.00000
    17.4302     7797.00000
    17.4433     7697.00000
    17.4565     7536.00000
    17.4696     7807.00000
    17.4827     7670.00000
    17.4959     7796.00000
    17.5090     7693.00000
    17.5221     7767.00000
    17.5352     7752.00000
    17.5484     7680.00000
    17.5615     7805.00000
    17.5746     7675.00000
    17.5878     7618.00000
    17.6009     7652.00000
    17.6140     7668.00000
    17.6272     7698.00000
    17.6403     7596.00000
    17.6534     7567.00000
    17.6666     7821.00000
    17.6797     7693.00000
    17.6928     7740.00000
    17.7059     7617.00000
    17.7191     7799.00000
    17.7322     7661.00000
    17.7453     7731.00000
    17.7585     7531.00000
    17.7716     7735.00000
    17.7847     7505.00000
    17.7979     7538.00000
    17.8110     7707.00000
    17.8241     7643.00000
    17.8372     7695.00000
    17.8504     7476.00000
    17.8635     7393.00000
    17.8766     7639.00000
    17.8898     7573.00000
    17.9029     7666.00000
    17.9160     7562.00000
    17.9292     7647.00000
    17.9423     7722.00000
    17.9554     7645.00000
    17.9685     7890.00000
    17.9817     7957.00000
    17.9948     7658.00000
    18.0079     7636.00000
    18.0211     7874.00000
    18.0342     7743.00000
    18.0473     7791.00000
    18.0605     7496.00000
    18.0736     7594.00000
    18.0867     7699.00000
    18.0998     7698.00000
    18.1130     7576.00000
    18.1261     7703.00000
    18.1392     7585.00000
    18.1524     7573.00000
    18.1655     7719.00000
    18.1786     7556.00000
    18.1918     7480.00000
    18.2049     7395.00000
    18.2180     7504.00000
    18.2312     7637.00000
    18.2443     7467.00000
    18.2574     7585.00000
    18.2705     7576.00000
    18.2837     7513.00000
    18.2968     7728.00000
    18.3099     7691.00000
    18.3231     7689.00000
    18.3362     7458.00000
    18.3493     7528.00000
    18.3625     7448.00000
    18.3756     7308.00000
    18.3887     7458.00000
    18.4018     7434.00000
    18.4150     7504.00000
    18.4281     7345.00000
    18.4412     7595.00000
    18.4544     7505.00000
    18.4675     7553.00000
    18.4806     7387.00000
    18.4938     7483.00000
    18.5069     7504.00000
    18.5200     7531.00000
    18.5331     7500.00000
    18.5463     7515.00000
    18.5594     7629.00000
    18.5725     7535.00000
    18.5857     7362.00000
    18.5988     7474.00000
    18.6119     7603.00000
    18.6251     7443.00000
    18.6382     7505.00000
    18.6513     7493.00000
    18.6645     7519.00000
    18.6776     7538.00000
    18.6907     7454.00000
    18.7038     7462.00000
    18.7170     7445.00000
    18.7301     7506.00000
    18.7432     7536.00000
    18.7564     7444.00000
    18.7695     7508.00000
    18.7826     7640.00000
    18.7958     7568.00000
    18.8089     7651.00000
    18.8220     7547.00000
    18.8351     7549.00000
    18.8483     7506.00000
    18.8614     7389.00000
    18.8745     7375.00000
    18.8877     7415.00000
    18.9008     7460.00000
    18.9139     7451.00000
    18.9271     7628.00000
    18.9402     7521.00000
