! Initial file:   D:\ZAKARY_OUAIL\MA_THESE\Deuxième_année_de_thèse\DRX\Affinement_DRX\Fullprof\Thermodiff3-nuit_NaNbO2F2\270°C\NaNbO2F2-Lent_270°C.xrdml
! Initial format:  58
! WAVE (A):      1.54060     1.54060     1.00000
! REM : data have been multiplied by     1.0000
! X_data : 2 Theta (deg.)                                                                                                                                                                                                                                                  
! Y_data : Intensity (arb. units)                                                                                                                                                                                                                                          
!     X         Y
!--------------------------------------------------------------------------------
    10.0116     7473.00000
    10.0247     7509.00000
    10.0379     7596.00000
    10.0510     7420.00000
    10.0641     7556.00000
    10.0772     7458.00000
    10.0904     7493.00000
    10.1035     7641.00000
    10.1166     7581.00000
    10.1298     7575.00000
    10.1429     7634.00000
    10.1560     7759.00000
    10.1692     7609.00000
    10.1823     7539.00000
    10.1954     7720.00000
    10.2086     7895.00000
    10.2217     7498.00000
    10.2348     7429.00000
    10.2479     7636.00000
    10.2611     7626.00000
    10.2742     7519.00000
    10.2873     7675.00000
    10.3005     7512.00000
    10.3136     7470.00000
    10.3267     7444.00000
    10.3399     7569.00000
    10.3530     7501.00000
    10.3661     7440.00000
    10.3792     7542.00000
    10.3924     7483.00000
    10.4055     7536.00000
    10.4186     7639.00000
    10.4318     7355.00000
    10.4449     7415.00000
    10.4580     7569.00000
    10.4712     7649.00000
    10.4843     7694.00000
    10.4974     7625.00000
    10.5105     7504.00000
    10.5237     7441.00000
    10.5368     7600.00000
    10.5499     7597.00000
    10.5631     7569.00000
    10.5762     7604.00000
    10.5893     7514.00000
    10.6025     7467.00000
    10.6156     7498.00000
    10.6287     7475.00000
    10.6418     7467.00000
    10.6550     7464.00000
    10.6681     7483.00000
    10.6812     7584.00000
    10.6944     7701.00000
    10.7075     7451.00000
    10.7206     7719.00000
    10.7338     7588.00000
    10.7469     7509.00000
    10.7600     7633.00000
    10.7732     7707.00000
    10.7863     7529.00000
    10.7994     7536.00000
    10.8125     7647.00000
    10.8257     7596.00000
    10.8388     7674.00000
    10.8519     7805.00000
    10.8651     7810.00000
    10.8782     8104.00000
    10.8913     8020.00000
    10.9045     8042.00000
    10.9176     7965.00000
    10.9307     7877.00000
    10.9438     8115.00000
    10.9570     8161.00000
    10.9701     8249.00000
    10.9832     8176.00000
    10.9964     8290.00000
    11.0095     8343.00000
    11.0226     8506.00000
    11.0358     8478.00000
    11.0489     8581.00000
    11.0620     9088.00000
    11.0751     9194.00000
    11.0883     9620.00000
    11.1014    10026.00000
    11.1145    10851.00000
    11.1277    12012.00000
    11.1408    13557.00000
    11.1539    15682.00000
    11.1671    19151.00000
    11.1802    23856.00000
    11.1933    31133.00000
    11.2065    44947.00000
    11.2196    61934.00000
    11.2327    76733.00000
    11.2458    82811.00000
    11.2590    76688.00000
    11.2721    64144.00000
    11.2852    47693.00000
    11.2984    32575.00000
    11.3115    21405.00000
    11.3246    14976.00000
    11.3378    11385.00000
    11.3509     9878.00000
    11.3640     9172.00000
    11.3771     8869.00000
    11.3903     8713.00000
    11.4034     8353.00000
    11.4165     8353.00000
    11.4297     8359.00000
    11.4428     7998.00000
    11.4559     8004.00000
    11.4691     7812.00000
    11.4822     7995.00000
    11.4953     7723.00000
    11.5084     7635.00000
    11.5216     7676.00000
    11.5347     7732.00000
    11.5478     7727.00000
    11.5610     7777.00000
    11.5741     7666.00000
    11.5872     7509.00000
    11.6004     7607.00000
    11.6135     7475.00000
    11.6266     7663.00000
    11.6398     7509.00000
    11.6529     7793.00000
    11.6660     7648.00000
    11.6791     7576.00000
    11.6923     7580.00000
    11.7054     7554.00000
    11.7185     7708.00000
    11.7317     7773.00000
    11.7448     7782.00000
    11.7579     7900.00000
    11.7711     7936.00000
    11.7842     8061.00000
    11.7973     8094.00000
    11.8104     7895.00000
    11.8236     7991.00000
    11.8367     7881.00000
    11.8498     7982.00000
    11.8630     7804.00000
    11.8761     7989.00000
    11.8892     7758.00000
    11.9024     7785.00000
    11.9155     7977.00000
    11.9286     7810.00000
    11.9417     7953.00000
    11.9549     7850.00000
    11.9680     7820.00000
    11.9811     7869.00000
    11.9943     7729.00000
    12.0074     7960.00000
    12.0205     7777.00000
    12.0337     7746.00000
    12.0468     7668.00000
    12.0599     7929.00000
    12.0731     7966.00000
    12.0862     7974.00000
    12.0993     7975.00000
    12.1124     7993.00000
    12.1256     7907.00000
    12.1387     7932.00000
    12.1518     7971.00000
    12.1650     8004.00000
    12.1781     8007.00000
    12.1912     7945.00000
    12.2044     8187.00000
    12.2175     8149.00000
    12.2306     7893.00000
    12.2437     8113.00000
    12.2569     8088.00000
    12.2700     7953.00000
    12.2831     8016.00000
    12.2963     8315.00000
    12.3094     7910.00000
    12.3225     7964.00000
    12.3357     8004.00000
    12.3488     7976.00000
    12.3619     7985.00000
    12.3750     7900.00000
    12.3882     8115.00000
    12.4013     8039.00000
    12.4144     8065.00000
    12.4276     7951.00000
    12.4407     8009.00000
    12.4538     8090.00000
    12.4670     8022.00000
    12.4801     8218.00000
    12.4932     7927.00000
    12.5063     7872.00000
    12.5195     7922.00000
    12.5326     8016.00000
    12.5457     7899.00000
    12.5589     8151.00000
    12.5720     8002.00000
    12.5851     8016.00000
    12.5983     8026.00000
    12.6114     7905.00000
    12.6245     7856.00000
    12.6377     7775.00000
    12.6508     7977.00000
    12.6639     7867.00000
    12.6770     7995.00000
    12.6902     7888.00000
    12.7033     8117.00000
    12.7164     7974.00000
    12.7296     8071.00000
    12.7427     8123.00000
    12.7558     7977.00000
    12.7690     7886.00000
    12.7821     7842.00000
    12.7952     7880.00000
    12.8083     8006.00000
    12.8215     8030.00000
    12.8346     7973.00000
    12.8477     7976.00000
    12.8609     7952.00000
    12.8740     7950.00000
    12.8871     7995.00000
    12.9003     7841.00000
    12.9134     7939.00000
    12.9265     7796.00000
    12.9396     7992.00000
    12.9528     7934.00000
    12.9659     7892.00000
    12.9790     7848.00000
    12.9922     7816.00000
    13.0053     7757.00000
    13.0184     7782.00000
    13.0316     8087.00000
    13.0447     8056.00000
    13.0578     7954.00000
    13.0710     7756.00000
    13.0841     7897.00000
    13.0972     8006.00000
    13.1103     8074.00000
    13.1235     7748.00000
    13.1366     8089.00000
    13.1497     8131.00000
    13.1629     8005.00000
    13.1760     7854.00000
    13.1891     7835.00000
    13.2023     8163.00000
    13.2154     7758.00000
    13.2285     7652.00000
    13.2416     7965.00000
    13.2548     7967.00000
    13.2679     7921.00000
    13.2810     7717.00000
    13.2942     7958.00000
    13.3073     7937.00000
    13.3204     7828.00000
    13.3336     7904.00000
    13.3467     7733.00000
    13.3598     7728.00000
    13.3729     7728.00000
    13.3861     7832.00000
    13.3992     7678.00000
    13.4123     7711.00000
    13.4255     7886.00000
    13.4386     7675.00000
    13.4517     7842.00000
    13.4649     7861.00000
    13.4780     7709.00000
    13.4911     7639.00000
    13.5043     7750.00000
    13.5174     7598.00000
    13.5305     7707.00000
    13.5436     7719.00000
    13.5568     7747.00000
    13.5699     7812.00000
    13.5830     7777.00000
    13.5962     7804.00000
    13.6093     7836.00000
    13.6224     7738.00000
    13.6356     7901.00000
    13.6487     7770.00000
    13.6618     7936.00000
    13.6749     7984.00000
    13.6881     8027.00000
    13.7012     8212.00000
    13.7143     7961.00000
    13.7275     8071.00000
    13.7406     7959.00000
    13.7537     7826.00000
    13.7669     7977.00000
    13.7800     7652.00000
    13.7931     7762.00000
    13.8062     7627.00000
    13.8194     7801.00000
    13.8325     7774.00000
    13.8456     7672.00000
    13.8588     7902.00000
    13.8719     7901.00000
    13.8850     7860.00000
    13.8982     7729.00000
    13.9113     7701.00000
    13.9244     7859.00000
    13.9376     7734.00000
    13.9507     7808.00000
    13.9638     7662.00000
    13.9769     7753.00000
    13.9901     7766.00000
    14.0032     7795.00000
    14.0163     7928.00000
    14.0295     7689.00000
    14.0426     7778.00000
    14.0557     7725.00000
    14.0689     7899.00000
    14.0820     7868.00000
    14.0951     7899.00000
    14.1082     8021.00000
    14.1214     7998.00000
    14.1345     7804.00000
    14.1476     7852.00000
    14.1608     7789.00000
    14.1739     7765.00000
    14.1870     7816.00000
    14.2002     7735.00000
    14.2133     7950.00000
    14.2264     7718.00000
    14.2395     7730.00000
    14.2527     7874.00000
    14.2658     7921.00000
    14.2789     7780.00000
    14.2921     7739.00000
    14.3052     7898.00000
    14.3183     7758.00000
    14.3315     7755.00000
    14.3446     7683.00000
    14.3577     7885.00000
    14.3708     7915.00000
    14.3840     7824.00000
    14.3971     7727.00000
    14.4102     7995.00000
    14.4234     7999.00000
    14.4365     8003.00000
    14.4496     8149.00000
    14.4628     8362.00000
    14.4759     8589.00000
    14.4890     8868.00000
    14.5022     9111.00000
    14.5153     9423.00000
    14.5284     9390.00000
    14.5415     9489.00000
    14.5547     9525.00000
    14.5678     9084.00000
    14.5809     8816.00000
    14.5941     8394.00000
    14.6072     8292.00000
    14.6203     8339.00000
    14.6335     8139.00000
    14.6466     7807.00000
    14.6597     7712.00000
    14.6728     7708.00000
    14.6860     7982.00000
    14.6991     7818.00000
    14.7122     7745.00000
    14.7254     7765.00000
    14.7385     7724.00000
    14.7516     7840.00000
    14.7648     7909.00000
    14.7779     7487.00000
    14.7910     7685.00000
    14.8041     7766.00000
    14.8173     7479.00000
    14.8304     7661.00000
    14.8435     7752.00000
    14.8567     7757.00000
    14.8698     7565.00000
    14.8829     7625.00000
    14.8961     7639.00000
    14.9092     7896.00000
    14.9223     7701.00000
    14.9355     7567.00000
    14.9486     7663.00000
    14.9617     7588.00000
    14.9748     7637.00000
    14.9880     7856.00000
    15.0011     7750.00000
    15.0142     7746.00000
    15.0274     7794.00000
    15.0405     7663.00000
    15.0536     7856.00000
    15.0668     7616.00000
    15.0799     7728.00000
    15.0930     7810.00000
    15.1061     7726.00000
    15.1193     7786.00000
    15.1324     7689.00000
    15.1455     7638.00000
    15.1587     7740.00000
    15.1718     7670.00000
    15.1849     7527.00000
    15.1981     7653.00000
    15.2112     7539.00000
    15.2243     7625.00000
    15.2374     7647.00000
    15.2506     7589.00000
    15.2637     7540.00000
    15.2768     7499.00000
    15.2900     7629.00000
    15.3031     7582.00000
    15.3162     7634.00000
    15.3294     7502.00000
    15.3425     7574.00000
    15.3556     7742.00000
    15.3688     7620.00000
    15.3819     7495.00000
    15.3950     7649.00000
    15.4081     7671.00000
    15.4213     7640.00000
    15.4344     7502.00000
    15.4475     7552.00000
    15.4607     7514.00000
    15.4738     7583.00000
    15.4869     7607.00000
    15.5001     7522.00000
    15.5132     7551.00000
    15.5263     7546.00000
    15.5394     7563.00000
    15.5526     7506.00000
    15.5657     7606.00000
    15.5788     7634.00000
    15.5920     7579.00000
    15.6051     7596.00000
    15.6182     7481.00000
    15.6314     7629.00000
    15.6445     7585.00000
    15.6576     7557.00000
    15.6707     7615.00000
    15.6839     7467.00000
    15.6970     7718.00000
    15.7101     7624.00000
    15.7233     7764.00000
    15.7364     7764.00000
    15.7495     7499.00000
    15.7627     7681.00000
    15.7758     7624.00000
    15.7889     7517.00000
    15.8021     7406.00000
    15.8152     7676.00000
    15.8283     7530.00000
    15.8414     7640.00000
    15.8546     7872.00000
    15.8677     7533.00000
    15.8808     7467.00000
    15.8940     7447.00000
    15.9071     7522.00000
    15.9202     7818.00000
    15.9334     7770.00000
    15.9465     7755.00000
    15.9596     7474.00000
    15.9727     7795.00000
    15.9859     7702.00000
    15.9990     7617.00000
    16.0121     7628.00000
    16.0253     7613.00000
    16.0384     7669.00000
    16.0515     7644.00000
    16.0647     7692.00000
    16.0778     7573.00000
    16.0909     7436.00000
    16.1040     7540.00000
    16.1172     7557.00000
    16.1303     7635.00000
    16.1434     7524.00000
    16.1566     7609.00000
    16.1697     7540.00000
    16.1828     7653.00000
    16.1960     7550.00000
    16.2091     7506.00000
    16.2222     7699.00000
    16.2353     7571.00000
    16.2485     7521.00000
    16.2616     7574.00000
    16.2747     7401.00000
    16.2879     7568.00000
    16.3010     7586.00000
    16.3141     7596.00000
    16.3273     7556.00000
    16.3404     7448.00000
    16.3535     7572.00000
    16.3667     7651.00000
    16.3798     7745.00000
    16.3929     7487.00000
    16.4060     7521.00000
    16.4192     7754.00000
    16.4323     7724.00000
    16.4454     7447.00000
    16.4586     7662.00000
    16.4717     7747.00000
    16.4848     7617.00000
    16.4980     7652.00000
    16.5111     7530.00000
    16.5242     7626.00000
    16.5373     7389.00000
    16.5505     7654.00000
    16.5636     7688.00000
    16.5767     7420.00000
    16.5899     7530.00000
    16.6030     7568.00000
    16.6161     7523.00000
    16.6293     7486.00000
    16.6424     7581.00000
    16.6555     7369.00000
    16.6686     7637.00000
    16.6818     7519.00000
    16.6949     7446.00000
    16.7080     7441.00000
    16.7212     7603.00000
    16.7343     7591.00000
    16.7474     7847.00000
    16.7606     7885.00000
    16.7737     8068.00000
    16.7868     8020.00000
    16.8000     7951.00000
    16.8131     8192.00000
    16.8262     8016.00000
    16.8393     7974.00000
    16.8525     7860.00000
    16.8656     7737.00000
    16.8787     7610.00000
    16.8919     7608.00000
    16.9050     7592.00000
    16.9181     7488.00000
    16.9313     7625.00000
    16.9444     7686.00000
    16.9575     7508.00000
    16.9706     7441.00000
    16.9838     7542.00000
    16.9969     7559.00000
    17.0100     7346.00000
    17.0232     7544.00000
    17.0363     7424.00000
    17.0494     7532.00000
    17.0626     7447.00000
    17.0757     7624.00000
    17.0888     7564.00000
    17.1019     7521.00000
    17.1151     7378.00000
    17.1282     7422.00000
    17.1413     7538.00000
    17.1545     7449.00000
    17.1676     7487.00000
    17.1807     7430.00000
    17.1939     7456.00000
    17.2070     7512.00000
    17.2201     7491.00000
    17.2333     7481.00000
    17.2464     7542.00000
    17.2595     7442.00000
    17.2726     7388.00000
    17.2858     7431.00000
    17.2989     7505.00000
    17.3120     7460.00000
    17.3252     7419.00000
    17.3383     7210.00000
    17.3514     7477.00000
    17.3646     7328.00000
    17.3777     7260.00000
    17.3908     7192.00000
    17.4039     7213.00000
    17.4171     7355.00000
    17.4302     7372.00000
    17.4433     7296.00000
    17.4565     7520.00000
    17.4696     7238.00000
    17.4827     7180.00000
    17.4959     7373.00000
    17.5090     7149.00000
    17.5221     7279.00000
    17.5352     7337.00000
    17.5484     7551.00000
    17.5615     7198.00000
    17.5746     7392.00000
    17.5878     7304.00000
    17.6009     7155.00000
    17.6140     7278.00000
    17.6272     7449.00000
    17.6403     7330.00000
    17.6534     7453.00000
    17.6666     7300.00000
    17.6797     7395.00000
    17.6928     7379.00000
    17.7059     7368.00000
    17.7191     7306.00000
    17.7322     7211.00000
    17.7453     7317.00000
    17.7585     7321.00000
    17.7716     7248.00000
    17.7847     7182.00000
    17.7979     7374.00000
    17.8110     7494.00000
    17.8241     7525.00000
    17.8372     7262.00000
    17.8504     7259.00000
    17.8635     7557.00000
    17.8766     7610.00000
    17.8898     7512.00000
    17.9029     7447.00000
    17.9160     7423.00000
    17.9292     7365.00000
    17.9423     7356.00000
    17.9554     7208.00000
    17.9685     7223.00000
    17.9817     7455.00000
    17.9948     7199.00000
    18.0079     7320.00000
    18.0211     7204.00000
    18.0342     7324.00000
    18.0473     7434.00000
    18.0605     7367.00000
    18.0736     7338.00000
    18.0867     7250.00000
    18.0998     7385.00000
    18.1130     7247.00000
    18.1261     7262.00000
    18.1392     7261.00000
    18.1524     7364.00000
    18.1655     7267.00000
    18.1786     7333.00000
    18.1918     7231.00000
    18.2049     7262.00000
    18.2180     7458.00000
    18.2312     7214.00000
    18.2443     7365.00000
    18.2574     7077.00000
    18.2705     7241.00000
    18.2837     7288.00000
    18.2968     7186.00000
    18.3099     7268.00000
    18.3231     7224.00000
    18.3362     7349.00000
    18.3493     7289.00000
    18.3625     7201.00000
    18.3756     7200.00000
    18.3887     7048.00000
    18.4018     7034.00000
    18.4150     7093.00000
    18.4281     7092.00000
    18.4412     7197.00000
    18.4544     7277.00000
    18.4675     7134.00000
    18.4806     7132.00000
    18.4938     7137.00000
    18.5069     7244.00000
    18.5200     7290.00000
    18.5331     7277.00000
    18.5463     7144.00000
    18.5594     7074.00000
    18.5725     7576.00000
    18.5857     7335.00000
    18.5988     7192.00000
    18.6119     7262.00000
    18.6251     7132.00000
    18.6382     7293.00000
    18.6513     7290.00000
    18.6645     7090.00000
    18.6776     7276.00000
    18.6907     7175.00000
    18.7038     7248.00000
    18.7170     7297.00000
    18.7301     7235.00000
    18.7432     7103.00000
    18.7564     7197.00000
    18.7695     7193.00000
    18.7826     7188.00000
    18.7958     7098.00000
    18.8089     7192.00000
    18.8220     7123.00000
    18.8351     7226.00000
    18.8483     7237.00000
    18.8614     7048.00000
    18.8745     7228.00000
    18.8877     7320.00000
    18.9008     7269.00000
    18.9139     7231.00000
    18.9271     7212.00000
    18.9402     7113.00000
