! Initial file:   D:\ZAKARY_OUAIL\MA_THESE\Deuxième_année_de_thèse\DRX\Affinement_DRX\Fullprof\Thermodiff3-nuit_NaNbO2F2\280°C\NaNbO2F2-Lent_280°C.xrdml
! Initial format:  58
! WAVE (A):      1.54060     1.54060     1.00000
! REM : data have been multiplied by     1.0000
! X_data : 2 Theta (deg.)                                                                                                                                                                                                                                                  
! Y_data : Intensity (arb. units)                                                                                                                                                                                                                                          
!     X         Y
!--------------------------------------------------------------------------------
    10.0116     7542.00000
    10.0247     7465.00000
    10.0379     7485.00000
    10.0510     7482.00000
    10.0641     7459.00000
    10.0772     7598.00000
    10.0904     7527.00000
    10.1035     7365.00000
    10.1166     7646.00000
    10.1298     7680.00000
    10.1429     7567.00000
    10.1560     7697.00000
    10.1692     7767.00000
    10.1823     7581.00000
    10.1954     7502.00000
    10.2086     7648.00000
    10.2217     7609.00000
    10.2348     7615.00000
    10.2479     7444.00000
    10.2611     7538.00000
    10.2742     7572.00000
    10.2873     7480.00000
    10.3005     7610.00000
    10.3136     7605.00000
    10.3267     7451.00000
    10.3399     7521.00000
    10.3530     7392.00000
    10.3661     7454.00000
    10.3792     7434.00000
    10.3924     7608.00000
    10.4055     7629.00000
    10.4186     7546.00000
    10.4318     7476.00000
    10.4449     7613.00000
    10.4580     7448.00000
    10.4712     7564.00000
    10.4843     7553.00000
    10.4974     7515.00000
    10.5105     7470.00000
    10.5237     7488.00000
    10.5368     7443.00000
    10.5499     7434.00000
    10.5631     7431.00000
    10.5762     7448.00000
    10.5893     7850.00000
    10.6025     7709.00000
    10.6156     7557.00000
    10.6287     7366.00000
    10.6418     7432.00000
    10.6550     7641.00000
    10.6681     7385.00000
    10.6812     7513.00000
    10.6944     7525.00000
    10.7075     7397.00000
    10.7206     7474.00000
    10.7338     7445.00000
    10.7469     7442.00000
    10.7600     7353.00000
    10.7732     7433.00000
    10.7863     7434.00000
    10.7994     7526.00000
    10.8125     7707.00000
    10.8257     7668.00000
    10.8388     7558.00000
    10.8519     7845.00000
    10.8651     7823.00000
    10.8782     7946.00000
    10.8913     8006.00000
    10.9045     7987.00000
    10.9176     8203.00000
    10.9307     8087.00000
    10.9438     7970.00000
    10.9570     8036.00000
    10.9701     8094.00000
    10.9832     8152.00000
    10.9964     8187.00000
    11.0095     8276.00000
    11.0226     8263.00000
    11.0358     8423.00000
    11.0489     8518.00000
    11.0620     8849.00000
    11.0751     9143.00000
    11.0883     9549.00000
    11.1014    10240.00000
    11.1145    11119.00000
    11.1277    12278.00000
    11.1408    13703.00000
    11.1539    16326.00000
    11.1671    20123.00000
    11.1802    24954.00000
    11.1933    32527.00000
    11.2065    47288.00000
    11.2196    64762.00000
    11.2327    77995.00000
    11.2458    82559.00000
    11.2590    75761.00000
    11.2721    61182.00000
    11.2852    44102.00000
    11.2984    29764.00000
    11.3115    19739.00000
    11.3246    14050.00000
    11.3378    10986.00000
    11.3509     9678.00000
    11.3640     8944.00000
    11.3771     8721.00000
    11.3903     8649.00000
    11.4034     8472.00000
    11.4165     8262.00000
    11.4297     8295.00000
    11.4428     8018.00000
    11.4559     7898.00000
    11.4691     7888.00000
    11.4822     7782.00000
    11.4953     7786.00000
    11.5084     7632.00000
    11.5216     7689.00000
    11.5347     7805.00000
    11.5478     7763.00000
    11.5610     7584.00000
    11.5741     7665.00000
    11.5872     7574.00000
    11.6004     7590.00000
    11.6135     7536.00000
    11.6266     7819.00000
    11.6398     7711.00000
    11.6529     7716.00000
    11.6660     7529.00000
    11.6791     7605.00000
    11.6923     7653.00000
    11.7054     7846.00000
    11.7185     7801.00000
    11.7317     7921.00000
    11.7448     7801.00000
    11.7579     7933.00000
    11.7711     7960.00000
    11.7842     7820.00000
    11.7973     7903.00000
    11.8104     7870.00000
    11.8236     8008.00000
    11.8367     7999.00000
    11.8498     7883.00000
    11.8630     7914.00000
    11.8761     7886.00000
    11.8892     8150.00000
    11.9024     7961.00000
    11.9155     7880.00000
    11.9286     7832.00000
    11.9417     7949.00000
    11.9549     7915.00000
    11.9680     7657.00000
    11.9811     7700.00000
    11.9943     7898.00000
    12.0074     8068.00000
    12.0205     7959.00000
    12.0337     7832.00000
    12.0468     7793.00000
    12.0599     7896.00000
    12.0731     7951.00000
    12.0862     7950.00000
    12.0993     7838.00000
    12.1124     8101.00000
    12.1256     7983.00000
    12.1387     7757.00000
    12.1518     7906.00000
    12.1650     7828.00000
    12.1781     8072.00000
    12.1912     7814.00000
    12.2044     8039.00000
    12.2175     7939.00000
    12.2306     8191.00000
    12.2437     8052.00000
    12.2569     7981.00000
    12.2700     7935.00000
    12.2831     8018.00000
    12.2963     7966.00000
    12.3094     8034.00000
    12.3225     7925.00000
    12.3357     7927.00000
    12.3488     8041.00000
    12.3619     8004.00000
    12.3750     8100.00000
    12.3882     7942.00000
    12.4013     7991.00000
    12.4144     8060.00000
    12.4276     8004.00000
    12.4407     8051.00000
    12.4538     8043.00000
    12.4670     7988.00000
    12.4801     7838.00000
    12.4932     8054.00000
    12.5063     7945.00000
    12.5195     7668.00000
    12.5326     7864.00000
    12.5457     7944.00000
    12.5589     8031.00000
    12.5720     7971.00000
    12.5851     7991.00000
    12.5983     8105.00000
    12.6114     7862.00000
    12.6245     7733.00000
    12.6377     7822.00000
    12.6508     7761.00000
    12.6639     7750.00000
    12.6770     7741.00000
    12.6902     7658.00000
    12.7033     7889.00000
    12.7164     7843.00000
    12.7296     7900.00000
    12.7427     7783.00000
    12.7558     7982.00000
    12.7690     7820.00000
    12.7821     7761.00000
    12.7952     8001.00000
    12.8083     7973.00000
    12.8215     8048.00000
    12.8346     8228.00000
    12.8477     7715.00000
    12.8609     8070.00000
    12.8740     7832.00000
    12.8871     7939.00000
    12.9003     7908.00000
    12.9134     7868.00000
    12.9265     7923.00000
    12.9396     7961.00000
    12.9528     7935.00000
    12.9659     7783.00000
    12.9790     7841.00000
    12.9922     7807.00000
    13.0053     7825.00000
    13.0184     8022.00000
    13.0316     7853.00000
    13.0447     7928.00000
    13.0578     7966.00000
    13.0710     8036.00000
    13.0841     7831.00000
    13.0972     7816.00000
    13.1103     7912.00000
    13.1235     7809.00000
    13.1366     7870.00000
    13.1497     7813.00000
    13.1629     7841.00000
    13.1760     7919.00000
    13.1891     7876.00000
    13.2023     7832.00000
    13.2154     7867.00000
    13.2285     7973.00000
    13.2416     7839.00000
    13.2548     8024.00000
    13.2679     7838.00000
    13.2810     7835.00000
    13.2942     7619.00000
    13.3073     7884.00000
    13.3204     7923.00000
    13.3336     7723.00000
    13.3467     7801.00000
    13.3598     7586.00000
    13.3729     7598.00000
    13.3861     7653.00000
    13.3992     7620.00000
    13.4123     7724.00000
    13.4255     7612.00000
    13.4386     7742.00000
    13.4517     7822.00000
    13.4649     7823.00000
    13.4780     7741.00000
    13.4911     7757.00000
    13.5043     7926.00000
    13.5174     7741.00000
    13.5305     7604.00000
    13.5436     7830.00000
    13.5568     7839.00000
    13.5699     7719.00000
    13.5830     7692.00000
    13.5962     7902.00000
    13.6093     7782.00000
    13.6224     7726.00000
    13.6356     7838.00000
    13.6487     7714.00000
    13.6618     7750.00000
    13.6749     7893.00000
    13.6881     8074.00000
    13.7012     8042.00000
    13.7143     7950.00000
    13.7275     7894.00000
    13.7406     7779.00000
    13.7537     7984.00000
    13.7669     7939.00000
    13.7800     7787.00000
    13.7931     7808.00000
    13.8062     7830.00000
    13.8194     7836.00000
    13.8325     7727.00000
    13.8456     7553.00000
    13.8588     7800.00000
    13.8719     7915.00000
    13.8850     7814.00000
    13.8982     7596.00000
    13.9113     7860.00000
    13.9244     7784.00000
    13.9376     7799.00000
    13.9507     7760.00000
    13.9638     7782.00000
    13.9769     7649.00000
    13.9901     7889.00000
    14.0032     7949.00000
    14.0163     7772.00000
    14.0295     7680.00000
    14.0426     7813.00000
    14.0557     7839.00000
    14.0689     7846.00000
    14.0820     7897.00000
    14.0951     7978.00000
    14.1082     8042.00000
    14.1214     7701.00000
    14.1345     7826.00000
    14.1476     7846.00000
    14.1608     7821.00000
    14.1739     7888.00000
    14.1870     7889.00000
    14.2002     7937.00000
    14.2133     7680.00000
    14.2264     7860.00000
    14.2395     7725.00000
    14.2527     7774.00000
    14.2658     7606.00000
    14.2789     7755.00000
    14.2921     7728.00000
    14.3052     7788.00000
    14.3183     7913.00000
    14.3315     7610.00000
    14.3446     7630.00000
    14.3577     7792.00000
    14.3708     7711.00000
    14.3840     7716.00000
    14.3971     7781.00000
    14.4102     7990.00000
    14.4234     7997.00000
    14.4365     7793.00000
    14.4496     8041.00000
    14.4628     8434.00000
    14.4759     8729.00000
    14.4890     8769.00000
    14.5022     9087.00000
    14.5153     9188.00000
    14.5284     9455.00000
    14.5415     9570.00000
    14.5547     9250.00000
    14.5678     9158.00000
    14.5809     8651.00000
    14.5941     8404.00000
    14.6072     8159.00000
    14.6203     7944.00000
    14.6335     7979.00000
    14.6466     7943.00000
    14.6597     7721.00000
    14.6728     7693.00000
    14.6860     7825.00000
    14.6991     7748.00000
    14.7122     7739.00000
    14.7254     7726.00000
    14.7385     7908.00000
    14.7516     7753.00000
    14.7648     7598.00000
    14.7779     7818.00000
    14.7910     7622.00000
    14.8041     7637.00000
    14.8173     7680.00000
    14.8304     7805.00000
    14.8435     7753.00000
    14.8567     7668.00000
    14.8698     7608.00000
    14.8829     7761.00000
    14.8961     7637.00000
    14.9092     7607.00000
    14.9223     7515.00000
    14.9355     7685.00000
    14.9486     7700.00000
    14.9617     7652.00000
    14.9748     7615.00000
    14.9880     7744.00000
    15.0011     7621.00000
    15.0142     7803.00000
    15.0274     7737.00000
    15.0405     7821.00000
    15.0536     7646.00000
    15.0668     7685.00000
    15.0799     7762.00000
    15.0930     7761.00000
    15.1061     7622.00000
    15.1193     7512.00000
    15.1324     7569.00000
    15.1455     7671.00000
    15.1587     7678.00000
    15.1718     7654.00000
    15.1849     7754.00000
    15.1981     7628.00000
    15.2112     7595.00000
    15.2243     7800.00000
    15.2374     7689.00000
    15.2506     7645.00000
    15.2637     7586.00000
    15.2768     7706.00000
    15.2900     7547.00000
    15.3031     7721.00000
    15.3162     7512.00000
    15.3294     7629.00000
    15.3425     7402.00000
    15.3556     7822.00000
    15.3688     7622.00000
    15.3819     7616.00000
    15.3950     7475.00000
    15.4081     7449.00000
    15.4213     7620.00000
    15.4344     7531.00000
    15.4475     7741.00000
    15.4607     7673.00000
    15.4738     7828.00000
    15.4869     7683.00000
    15.5001     7571.00000
    15.5132     7735.00000
    15.5263     7576.00000
    15.5394     7779.00000
    15.5526     7746.00000
    15.5657     7779.00000
    15.5788     7687.00000
    15.5920     7611.00000
    15.6051     7716.00000
    15.6182     7447.00000
    15.6314     7595.00000
    15.6445     7642.00000
    15.6576     7740.00000
    15.6707     7767.00000
    15.6839     7587.00000
    15.6970     7516.00000
    15.7101     7607.00000
    15.7233     7575.00000
    15.7364     7640.00000
    15.7495     7702.00000
    15.7627     7495.00000
    15.7758     7317.00000
    15.7889     7457.00000
    15.8021     7818.00000
    15.8152     7642.00000
    15.8283     7701.00000
    15.8414     7612.00000
    15.8546     7609.00000
    15.8677     7811.00000
    15.8808     7695.00000
    15.8940     7596.00000
    15.9071     7655.00000
    15.9202     7745.00000
    15.9334     7495.00000
    15.9465     7614.00000
    15.9596     7566.00000
    15.9727     7610.00000
    15.9859     7653.00000
    15.9990     7842.00000
    16.0121     7561.00000
    16.0253     7655.00000
    16.0384     7547.00000
    16.0515     7656.00000
    16.0647     7684.00000
    16.0778     7570.00000
    16.0909     7620.00000
    16.1040     7525.00000
    16.1172     7603.00000
    16.1303     7570.00000
    16.1434     7657.00000
    16.1566     7815.00000
    16.1697     7713.00000
    16.1828     7537.00000
    16.1960     7562.00000
    16.2091     7628.00000
    16.2222     7400.00000
    16.2353     7438.00000
    16.2485     7638.00000
    16.2616     7542.00000
    16.2747     7579.00000
    16.2879     7559.00000
    16.3010     7607.00000
    16.3141     7477.00000
    16.3273     7654.00000
    16.3404     7542.00000
    16.3535     7403.00000
    16.3667     7424.00000
    16.3798     7678.00000
    16.3929     7719.00000
    16.4060     7658.00000
    16.4192     7570.00000
    16.4323     7764.00000
    16.4454     7665.00000
    16.4586     7515.00000
    16.4717     7574.00000
    16.4848     7427.00000
    16.4980     7630.00000
    16.5111     7540.00000
    16.5242     7539.00000
    16.5373     7431.00000
    16.5505     7409.00000
    16.5636     7420.00000
    16.5767     7455.00000
    16.5899     7350.00000
    16.6030     7450.00000
    16.6161     7655.00000
    16.6293     7600.00000
    16.6424     7599.00000
    16.6555     7578.00000
    16.6686     7514.00000
    16.6818     7521.00000
    16.6949     7569.00000
    16.7080     7445.00000
    16.7212     7613.00000
    16.7343     7739.00000
    16.7474     7738.00000
    16.7606     7723.00000
    16.7737     8047.00000
    16.7868     7847.00000
    16.8000     8083.00000
    16.8131     8041.00000
    16.8262     8010.00000
    16.8393     7942.00000
    16.8525     7640.00000
    16.8656     7606.00000
    16.8787     7602.00000
    16.8919     7754.00000
    16.9050     7528.00000
    16.9181     7461.00000
    16.9313     7614.00000
    16.9444     7545.00000
    16.9575     7337.00000
    16.9706     7454.00000
    16.9838     7378.00000
    16.9969     7370.00000
    17.0100     7377.00000
    17.0232     7440.00000
    17.0363     7494.00000
    17.0494     7428.00000
    17.0626     7388.00000
    17.0757     7504.00000
    17.0888     7589.00000
    17.1019     7268.00000
    17.1151     7546.00000
    17.1282     7433.00000
    17.1413     7535.00000
    17.1545     7507.00000
    17.1676     7453.00000
    17.1807     7440.00000
    17.1939     7354.00000
    17.2070     7287.00000
    17.2201     7299.00000
    17.2333     7436.00000
    17.2464     7281.00000
    17.2595     7428.00000
    17.2726     7300.00000
    17.2858     7201.00000
    17.2989     7263.00000
    17.3120     7505.00000
    17.3252     7509.00000
    17.3383     7358.00000
    17.3514     7562.00000
    17.3646     7335.00000
    17.3777     7384.00000
    17.3908     7332.00000
    17.4039     7366.00000
    17.4171     7297.00000
    17.4302     7379.00000
    17.4433     7396.00000
    17.4565     7382.00000
    17.4696     7256.00000
    17.4827     7421.00000
    17.4959     7408.00000
    17.5090     7244.00000
    17.5221     7579.00000
    17.5352     7528.00000
    17.5484     7322.00000
    17.5615     7408.00000
    17.5746     7392.00000
    17.5878     7468.00000
    17.6009     7411.00000
    17.6140     7247.00000
    17.6272     7140.00000
    17.6403     7284.00000
    17.6534     7399.00000
    17.6666     7291.00000
    17.6797     7194.00000
    17.6928     7417.00000
    17.7059     7342.00000
    17.7191     7151.00000
    17.7322     7197.00000
    17.7453     7149.00000
    17.7585     7183.00000
    17.7716     7509.00000
    17.7847     7347.00000
    17.7979     7388.00000
    17.8110     7332.00000
    17.8241     7410.00000
    17.8372     7486.00000
    17.8504     7550.00000
    17.8635     7640.00000
    17.8766     7531.00000
    17.8898     7618.00000
    17.9029     7499.00000
    17.9160     7500.00000
    17.9292     7503.00000
    17.9423     7194.00000
    17.9554     7245.00000
    17.9685     7084.00000
    17.9817     7169.00000
    17.9948     7233.00000
    18.0079     7320.00000
    18.0211     7200.00000
    18.0342     7130.00000
    18.0473     7292.00000
    18.0605     7150.00000
    18.0736     7253.00000
    18.0867     7334.00000
    18.0998     7178.00000
    18.1130     7145.00000
    18.1261     7232.00000
    18.1392     7159.00000
    18.1524     7250.00000
    18.1655     7394.00000
    18.1786     7231.00000
    18.1918     7247.00000
    18.2049     7315.00000
    18.2180     7215.00000
    18.2312     7092.00000
    18.2443     7179.00000
    18.2574     7315.00000
    18.2705     7079.00000
    18.2837     7269.00000
    18.2968     7193.00000
    18.3099     7190.00000
    18.3231     7164.00000
    18.3362     7115.00000
    18.3493     7253.00000
    18.3625     7119.00000
    18.3756     7263.00000
    18.3887     7254.00000
    18.4018     7077.00000
    18.4150     7218.00000
    18.4281     7372.00000
    18.4412     7212.00000
    18.4544     7424.00000
    18.4675     7304.00000
    18.4806     7221.00000
    18.4938     7276.00000
    18.5069     7055.00000
    18.5200     7308.00000
    18.5331     7348.00000
    18.5463     7165.00000
    18.5594     7021.00000
    18.5725     7099.00000
    18.5857     7248.00000
    18.5988     7283.00000
    18.6119     7026.00000
    18.6251     7295.00000
    18.6382     7239.00000
    18.6513     7253.00000
    18.6645     7059.00000
    18.6776     7172.00000
    18.6907     6980.00000
    18.7038     7085.00000
    18.7170     7124.00000
    18.7301     7280.00000
    18.7432     7182.00000
    18.7564     7010.00000
    18.7695     6992.00000
    18.7826     7260.00000
    18.7958     7129.00000
    18.8089     7178.00000
    18.8220     7209.00000
    18.8351     7322.00000
    18.8483     7256.00000
    18.8614     7168.00000
    18.8745     7088.00000
    18.8877     7072.00000
    18.9008     7293.00000
    18.9139     7294.00000
    18.9271     7218.00000
    18.9402     7208.00000
