! Initial file:   D:\ZAKARY_OUAIL\MA_THESE\Deuxième_année_de_thèse\DRX\Affinement_DRX\Fullprof\Thermodiff3-nuit_NaNbO2F2\290°C\NaNbO2F2-Lent_290°C.xrdml
! Initial format:  58
! WAVE (A):      1.54060     1.54060     1.00000
! REM : data have been multiplied by     1.0000
! X_data : 2 Theta (deg.)                                                                                                                                                                                                                                                  
! Y_data : Intensity (arb. units)                                                                                                                                                                                                                                          
!     X         Y
!--------------------------------------------------------------------------------
    10.0116     7485.00000
    10.0247     7382.00000
    10.0379     7376.00000
    10.0510     7375.00000
    10.0641     7443.00000
    10.0772     7655.00000
    10.0904     7585.00000
    10.1035     7463.00000
    10.1166     7637.00000
    10.1298     7555.00000
    10.1429     7799.00000
    10.1560     7809.00000
    10.1692     7805.00000
    10.1823     7643.00000
    10.1954     7455.00000
    10.2086     7554.00000
    10.2217     7409.00000
    10.2348     7408.00000
    10.2479     7581.00000
    10.2611     7664.00000
    10.2742     7464.00000
    10.2873     7489.00000
    10.3005     7605.00000
    10.3136     7628.00000
    10.3267     7512.00000
    10.3399     7507.00000
    10.3530     7646.00000
    10.3661     7434.00000
    10.3792     7507.00000
    10.3924     7469.00000
    10.4055     7387.00000
    10.4186     7500.00000
    10.4318     7673.00000
    10.4449     7338.00000
    10.4580     7698.00000
    10.4712     7565.00000
    10.4843     7429.00000
    10.4974     7654.00000
    10.5105     7590.00000
    10.5237     7523.00000
    10.5368     7436.00000
    10.5499     7439.00000
    10.5631     7620.00000
    10.5762     7409.00000
    10.5893     7546.00000
    10.6025     7565.00000
    10.6156     7633.00000
    10.6287     7588.00000
    10.6418     7651.00000
    10.6550     7603.00000
    10.6681     7340.00000
    10.6812     7685.00000
    10.6944     7427.00000
    10.7075     7471.00000
    10.7206     7565.00000
    10.7338     7355.00000
    10.7469     7425.00000
    10.7600     7395.00000
    10.7732     7579.00000
    10.7863     7728.00000
    10.7994     7748.00000
    10.8125     7405.00000
    10.8257     7644.00000
    10.8388     7757.00000
    10.8519     7923.00000
    10.8651     7545.00000
    10.8782     7944.00000
    10.8913     7737.00000
    10.9045     8013.00000
    10.9176     8007.00000
    10.9307     8165.00000
    10.9438     8088.00000
    10.9570     7946.00000
    10.9701     8133.00000
    10.9832     8025.00000
    10.9964     8187.00000
    11.0095     8217.00000
    11.0226     8263.00000
    11.0358     8387.00000
    11.0489     8585.00000
    11.0620     8752.00000
    11.0751     9057.00000
    11.0883     9758.00000
    11.1014    10287.00000
    11.1145    11065.00000
    11.1277    12248.00000
    11.1408    14228.00000
    11.1539    16805.00000
    11.1671    20561.00000
    11.1802    26102.00000
    11.1933    35765.00000
    11.2065    50734.00000
    11.2196    67483.00000
    11.2327    80249.00000
    11.2458    81699.00000
    11.2590    72054.00000
    11.2721    57225.00000
    11.2852    40333.00000
    11.2984    26555.00000
    11.3115    17876.00000
    11.3246    12859.00000
    11.3378    10465.00000
    11.3509     9342.00000
    11.3640     8871.00000
    11.3771     8688.00000
    11.3903     8698.00000
    11.4034     8221.00000
    11.4165     8277.00000
    11.4297     8254.00000
    11.4428     8057.00000
    11.4559     7877.00000
    11.4691     8118.00000
    11.4822     7827.00000
    11.4953     7901.00000
    11.5084     7652.00000
    11.5216     7618.00000
    11.5347     7535.00000
    11.5478     7673.00000
    11.5610     7462.00000
    11.5741     7529.00000
    11.5872     7552.00000
    11.6004     7680.00000
    11.6135     7576.00000
    11.6266     7624.00000
    11.6398     7682.00000
    11.6529     7771.00000
    11.6660     7491.00000
    11.6791     7736.00000
    11.6923     7556.00000
    11.7054     7740.00000
    11.7185     7612.00000
    11.7317     7625.00000
    11.7448     7689.00000
    11.7579     7836.00000
    11.7711     7847.00000
    11.7842     7882.00000
    11.7973     7895.00000
    11.8104     7884.00000
    11.8236     7915.00000
    11.8367     7854.00000
    11.8498     7997.00000
    11.8630     7799.00000
    11.8761     7844.00000
    11.8892     7987.00000
    11.9024     7904.00000
    11.9155     7892.00000
    11.9286     7951.00000
    11.9417     7685.00000
    11.9549     7709.00000
    11.9680     7794.00000
    11.9811     7965.00000
    11.9943     8041.00000
    12.0074     7836.00000
    12.0205     7820.00000
    12.0337     7701.00000
    12.0468     8077.00000
    12.0599     7892.00000
    12.0731     7999.00000
    12.0862     8098.00000
    12.0993     7949.00000
    12.1124     8026.00000
    12.1256     7890.00000
    12.1387     7689.00000
    12.1518     7905.00000
    12.1650     7870.00000
    12.1781     7891.00000
    12.1912     7960.00000
    12.2044     8009.00000
    12.2175     7948.00000
    12.2306     8038.00000
    12.2437     7916.00000
    12.2569     8078.00000
    12.2700     8176.00000
    12.2831     8065.00000
    12.2963     7885.00000
    12.3094     7935.00000
    12.3225     7953.00000
    12.3357     7993.00000
    12.3488     8015.00000
    12.3619     8145.00000
    12.3750     7958.00000
    12.3882     7949.00000
    12.4013     7984.00000
    12.4144     8060.00000
    12.4276     7972.00000
    12.4407     7852.00000
    12.4538     7805.00000
    12.4670     7959.00000
    12.4801     8044.00000
    12.4932     8006.00000
    12.5063     8089.00000
    12.5195     7979.00000
    12.5326     7697.00000
    12.5457     8036.00000
    12.5589     7996.00000
    12.5720     8058.00000
    12.5851     7878.00000
    12.5983     7907.00000
    12.6114     7673.00000
    12.6245     8065.00000
    12.6377     7864.00000
    12.6508     7863.00000
    12.6639     7772.00000
    12.6770     8058.00000
    12.6902     7953.00000
    12.7033     7953.00000
    12.7164     7882.00000
    12.7296     7893.00000
    12.7427     8088.00000
    12.7558     7765.00000
    12.7690     8074.00000
    12.7821     7921.00000
    12.7952     7968.00000
    12.8083     7808.00000
    12.8215     7841.00000
    12.8346     7796.00000
    12.8477     7974.00000
    12.8609     7900.00000
    12.8740     7947.00000
    12.8871     7809.00000
    12.9003     7820.00000
    12.9134     7805.00000
    12.9265     8051.00000
    12.9396     7993.00000
    12.9528     7782.00000
    12.9659     7951.00000
    12.9790     7900.00000
    12.9922     8006.00000
    13.0053     7861.00000
    13.0184     7731.00000
    13.0316     7664.00000
    13.0447     7769.00000
    13.0578     7944.00000
    13.0710     7763.00000
    13.0841     7806.00000
    13.0972     7795.00000
    13.1103     7792.00000
    13.1235     7684.00000
    13.1366     7782.00000
    13.1497     7734.00000
    13.1629     7902.00000
    13.1760     7873.00000
    13.1891     7971.00000
    13.2023     7807.00000
    13.2154     7730.00000
    13.2285     7906.00000
    13.2416     7778.00000
    13.2548     7847.00000
    13.2679     7878.00000
    13.2810     7802.00000
    13.2942     7924.00000
    13.3073     7951.00000
    13.3204     7693.00000
    13.3336     7758.00000
    13.3467     7687.00000
    13.3598     7704.00000
    13.3729     7842.00000
    13.3861     7764.00000
    13.3992     7754.00000
    13.4123     7765.00000
    13.4255     7776.00000
    13.4386     7807.00000
    13.4517     7966.00000
    13.4649     7843.00000
    13.4780     7747.00000
    13.4911     7768.00000
    13.5043     7822.00000
    13.5174     7665.00000
    13.5305     7463.00000
    13.5436     7746.00000
    13.5568     7888.00000
    13.5699     7864.00000
    13.5830     7782.00000
    13.5962     7757.00000
    13.6093     7772.00000
    13.6224     7842.00000
    13.6356     7728.00000
    13.6487     7879.00000
    13.6618     7866.00000
    13.6749     7887.00000
    13.6881     7977.00000
    13.7012     7963.00000
    13.7143     7850.00000
    13.7275     7998.00000
    13.7406     8048.00000
    13.7537     7903.00000
    13.7669     7860.00000
    13.7800     7763.00000
    13.7931     7787.00000
    13.8062     7838.00000
    13.8194     7877.00000
    13.8325     7679.00000
    13.8456     7661.00000
    13.8588     7840.00000
    13.8719     7820.00000
    13.8850     7647.00000
    13.8982     7774.00000
    13.9113     7706.00000
    13.9244     7536.00000
    13.9376     7762.00000
    13.9507     7734.00000
    13.9638     7701.00000
    13.9769     7905.00000
    13.9901     7685.00000
    14.0032     7777.00000
    14.0163     7732.00000
    14.0295     7759.00000
    14.0426     7875.00000
    14.0557     7784.00000
    14.0689     8007.00000
    14.0820     7843.00000
    14.0951     7705.00000
    14.1082     7810.00000
    14.1214     7803.00000
    14.1345     7675.00000
    14.1476     7642.00000
    14.1608     7986.00000
    14.1739     7886.00000
    14.1870     7790.00000
    14.2002     7726.00000
    14.2133     7792.00000
    14.2264     7738.00000
    14.2395     7753.00000
    14.2527     7674.00000
    14.2658     7718.00000
    14.2789     7775.00000
    14.2921     7701.00000
    14.3052     7813.00000
    14.3183     7912.00000
    14.3315     7702.00000
    14.3446     7813.00000
    14.3577     7679.00000
    14.3708     7713.00000
    14.3840     7836.00000
    14.3971     7777.00000
    14.4102     7803.00000
    14.4234     7604.00000
    14.4365     8044.00000
    14.4496     8237.00000
    14.4628     8274.00000
    14.4759     8530.00000
    14.4890     8849.00000
    14.5022     9154.00000
    14.5153     9421.00000
    14.5284     9463.00000
    14.5415     9267.00000
    14.5547     9311.00000
    14.5678     9085.00000
    14.5809     8878.00000
    14.5941     8621.00000
    14.6072     8084.00000
    14.6203     7963.00000
    14.6335     7817.00000
    14.6466     7665.00000
    14.6597     7707.00000
    14.6728     7766.00000
    14.6860     7769.00000
    14.6991     7814.00000
    14.7122     7944.00000
    14.7254     7645.00000
    14.7385     7750.00000
    14.7516     7762.00000
    14.7648     7717.00000
    14.7779     7672.00000
    14.7910     7588.00000
    14.8041     7657.00000
    14.8173     7702.00000
    14.8304     7600.00000
    14.8435     7707.00000
    14.8567     7588.00000
    14.8698     7628.00000
    14.8829     7471.00000
    14.8961     7508.00000
    14.9092     7524.00000
    14.9223     7450.00000
    14.9355     7703.00000
    14.9486     7598.00000
    14.9617     7758.00000
    14.9748     7509.00000
    14.9880     7726.00000
    15.0011     7882.00000
    15.0142     7702.00000
    15.0274     7736.00000
    15.0405     7474.00000
    15.0536     7487.00000
    15.0668     7744.00000
    15.0799     7419.00000
    15.0930     7641.00000
    15.1061     7626.00000
    15.1193     7788.00000
    15.1324     7548.00000
    15.1455     7389.00000
    15.1587     7527.00000
    15.1718     7523.00000
    15.1849     7648.00000
    15.1981     7600.00000
    15.2112     7621.00000
    15.2243     7623.00000
    15.2374     7515.00000
    15.2506     7673.00000
    15.2637     7710.00000
    15.2768     7704.00000
    15.2900     7399.00000
    15.3031     7715.00000
    15.3162     7549.00000
    15.3294     7687.00000
    15.3425     7691.00000
    15.3556     7586.00000
    15.3688     7594.00000
    15.3819     7644.00000
    15.3950     7720.00000
    15.4081     7397.00000
    15.4213     7490.00000
    15.4344     7755.00000
    15.4475     7823.00000
    15.4607     7582.00000
    15.4738     7644.00000
    15.4869     7513.00000
    15.5001     7697.00000
    15.5132     7842.00000
    15.5263     7692.00000
    15.5394     7563.00000
    15.5526     7791.00000
    15.5657     7328.00000
    15.5788     7630.00000
    15.5920     7448.00000
    15.6051     7611.00000
    15.6182     7602.00000
    15.6314     7472.00000
    15.6445     7434.00000
    15.6576     7379.00000
    15.6707     7511.00000
    15.6839     7453.00000
    15.6970     7492.00000
    15.7101     7499.00000
    15.7233     7465.00000
    15.7364     7687.00000
    15.7495     7486.00000
    15.7627     7322.00000
    15.7758     7580.00000
    15.7889     7676.00000
    15.8021     7697.00000
    15.8152     7532.00000
    15.8283     7659.00000
    15.8414     7678.00000
    15.8546     7725.00000
    15.8677     7467.00000
    15.8808     7806.00000
    15.8940     7759.00000
    15.9071     7681.00000
    15.9202     7645.00000
    15.9334     7682.00000
    15.9465     7542.00000
    15.9596     7671.00000
    15.9727     7653.00000
    15.9859     7591.00000
    15.9990     7705.00000
    16.0121     7697.00000
    16.0253     7647.00000
    16.0384     7438.00000
    16.0515     7637.00000
    16.0647     7553.00000
    16.0778     7567.00000
    16.0909     7687.00000
    16.1040     7577.00000
    16.1172     7600.00000
    16.1303     7483.00000
    16.1434     7587.00000
    16.1566     7681.00000
    16.1697     7782.00000
    16.1828     7376.00000
    16.1960     7410.00000
    16.2091     7611.00000
    16.2222     7600.00000
    16.2353     7567.00000
    16.2485     7406.00000
    16.2616     7459.00000
    16.2747     7427.00000
    16.2879     7493.00000
    16.3010     7545.00000
    16.3141     7505.00000
    16.3273     7388.00000
    16.3404     7592.00000
    16.3535     7627.00000
    16.3667     7622.00000
    16.3798     7558.00000
    16.3929     7474.00000
    16.4060     7413.00000
    16.4192     7488.00000
    16.4323     7475.00000
    16.4454     7527.00000
    16.4586     7694.00000
    16.4717     7706.00000
    16.4848     7712.00000
    16.4980     7644.00000
    16.5111     7460.00000
    16.5242     7726.00000
    16.5373     7443.00000
    16.5505     7483.00000
    16.5636     7581.00000
    16.5767     7542.00000
    16.5899     7369.00000
    16.6030     7548.00000
    16.6161     7638.00000
    16.6293     7500.00000
    16.6424     7550.00000
    16.6555     7498.00000
    16.6686     7445.00000
    16.6818     7500.00000
    16.6949     7559.00000
    16.7080     7657.00000
    16.7212     7672.00000
    16.7343     7649.00000
    16.7474     7765.00000
    16.7606     7676.00000
    16.7737     7907.00000
    16.7868     7911.00000
    16.8000     7980.00000
    16.8131     7949.00000
    16.8262     8010.00000
    16.8393     7848.00000
    16.8525     7742.00000
    16.8656     7640.00000
    16.8787     7455.00000
    16.8919     7460.00000
    16.9050     7396.00000
    16.9181     7465.00000
    16.9313     7454.00000
    16.9444     7220.00000
    16.9575     7599.00000
    16.9706     7403.00000
    16.9838     7348.00000
    16.9969     7359.00000
    17.0100     7628.00000
    17.0232     7286.00000
    17.0363     7401.00000
    17.0494     7445.00000
    17.0626     7469.00000
    17.0757     7360.00000
    17.0888     7510.00000
    17.1019     7501.00000
    17.1151     7431.00000
    17.1282     7389.00000
    17.1413     7313.00000
    17.1545     7415.00000
    17.1676     7477.00000
    17.1807     7446.00000
    17.1939     7204.00000
    17.2070     7468.00000
    17.2201     7201.00000
    17.2333     7276.00000
    17.2464     7167.00000
    17.2595     7283.00000
    17.2726     7107.00000
    17.2858     7451.00000
    17.2989     7328.00000
    17.3120     7320.00000
    17.3252     7311.00000
    17.3383     7470.00000
    17.3514     7435.00000
    17.3646     7311.00000
    17.3777     7415.00000
    17.3908     7246.00000
    17.4039     7421.00000
    17.4171     7371.00000
    17.4302     7513.00000
    17.4433     7360.00000
    17.4565     7214.00000
    17.4696     7394.00000
    17.4827     7364.00000
    17.4959     7212.00000
    17.5090     7418.00000
    17.5221     7289.00000
    17.5352     7293.00000
    17.5484     7362.00000
    17.5615     7461.00000
    17.5746     7336.00000
    17.5878     7512.00000
    17.6009     7429.00000
    17.6140     7196.00000
    17.6272     7212.00000
    17.6403     7220.00000
    17.6534     7413.00000
    17.6666     7502.00000
    17.6797     7452.00000
    17.6928     7432.00000
    17.7059     7278.00000
    17.7191     7163.00000
    17.7322     7173.00000
    17.7453     7421.00000
    17.7585     7242.00000
    17.7716     7184.00000
    17.7847     7348.00000
    17.7979     7279.00000
    17.8110     7411.00000
    17.8241     7450.00000
    17.8372     7698.00000
    17.8504     7611.00000
    17.8635     7656.00000
    17.8766     7645.00000
    17.8898     7493.00000
    17.9029     7401.00000
    17.9160     7439.00000
    17.9292     7257.00000
    17.9423     7320.00000
    17.9554     7242.00000
    17.9685     7100.00000
    17.9817     7189.00000
    17.9948     7095.00000
    18.0079     7434.00000
    18.0211     7289.00000
    18.0342     7299.00000
    18.0473     7206.00000
    18.0605     7311.00000
    18.0736     7320.00000
    18.0867     7361.00000
    18.0998     7340.00000
    18.1130     7297.00000
    18.1261     7143.00000
    18.1392     7269.00000
    18.1524     7274.00000
    18.1655     7256.00000
    18.1786     7139.00000
    18.1918     7267.00000
    18.2049     7109.00000
    18.2180     7123.00000
    18.2312     7139.00000
    18.2443     7323.00000
    18.2574     7418.00000
    18.2705     7177.00000
    18.2837     7117.00000
    18.2968     7130.00000
    18.3099     7224.00000
    18.3231     7088.00000
    18.3362     7232.00000
    18.3493     7125.00000
    18.3625     7224.00000
    18.3756     7205.00000
    18.3887     7140.00000
    18.4018     7187.00000
    18.4150     7061.00000
    18.4281     7178.00000
    18.4412     7070.00000
    18.4544     7193.00000
    18.4675     7159.00000
    18.4806     7291.00000
    18.4938     7130.00000
    18.5069     7304.00000
    18.5200     7284.00000
    18.5331     7191.00000
    18.5463     7127.00000
    18.5594     7030.00000
    18.5725     7242.00000
    18.5857     7309.00000
    18.5988     7085.00000
    18.6119     7077.00000
    18.6251     7286.00000
    18.6382     7111.00000
    18.6513     7032.00000
    18.6645     7232.00000
    18.6776     7387.00000
    18.6907     7158.00000
    18.7038     7072.00000
    18.7170     7039.00000
    18.7301     7037.00000
    18.7432     7231.00000
    18.7564     7174.00000
    18.7695     7143.00000
    18.7826     7078.00000
    18.7958     7256.00000
    18.8089     7107.00000
    18.8220     7103.00000
    18.8351     7067.00000
    18.8483     7080.00000
    18.8614     7208.00000
    18.8745     7075.00000
    18.8877     7360.00000
    18.9008     7246.00000
    18.9139     7131.00000
    18.9271     7158.00000
    18.9402     7084.00000
