! Initial file:   D:\ZAKARY_OUAIL\MA_THESE\Deuxième_année_de_thèse\DRX\Affinement_DRX\Fullprof\Thermodiff3-nuit_NaNbO2F2\80°C\NaNbO2F2-Lent_80°C.xrdml
! Initial format:  58
! WAVE (A):      1.54060     1.54060     1.00000
! REM : data have been multiplied by     1.0000
! X_data : 2 Theta (deg.)                                                                                                                                                                                                                                                  
! Y_data : Intensity (arb. units)                                                                                                                                                                                                                                          
!     X         Y
!--------------------------------------------------------------------------------
    10.0116     7951.00000
    10.0247     8184.00000
    10.0379     8428.00000
    10.0510     8254.00000
    10.0641     8254.00000
    10.0772     8050.00000
    10.0904     8123.00000
    10.1035     8046.00000
    10.1166     8208.00000
    10.1298     8098.00000
    10.1429     8242.00000
    10.1560     8260.00000
    10.1692     8415.00000
    10.1823     8346.00000
    10.1954     8216.00000
    10.2086     8377.00000
    10.2217     8341.00000
    10.2348     8184.00000
    10.2479     8123.00000
    10.2611     8177.00000
    10.2742     8220.00000
    10.2873     8147.00000
    10.3005     8271.00000
    10.3136     8119.00000
    10.3267     8096.00000
    10.3399     8186.00000
    10.3530     8002.00000
    10.3661     8262.00000
    10.3792     8090.00000
    10.3924     8042.00000
    10.4055     8120.00000
    10.4186     8056.00000
    10.4318     7984.00000
    10.4449     7999.00000
    10.4580     8117.00000
    10.4712     8125.00000
    10.4843     7926.00000
    10.4974     8009.00000
    10.5105     7988.00000
    10.5237     7951.00000
    10.5368     8061.00000
    10.5499     8107.00000
    10.5631     7960.00000
    10.5762     8014.00000
    10.5893     8107.00000
    10.6025     8077.00000
    10.6156     8103.00000
    10.6287     7984.00000
    10.6418     8107.00000
    10.6550     8032.00000
    10.6681     8162.00000
    10.6812     8060.00000
    10.6944     8015.00000
    10.7075     7888.00000
    10.7206     7979.00000
    10.7338     7999.00000
    10.7469     8188.00000
    10.7600     8111.00000
    10.7732     8114.00000
    10.7863     8157.00000
    10.7994     7969.00000
    10.8125     8109.00000
    10.8257     8195.00000
    10.8388     8127.00000
    10.8519     8148.00000
    10.8651     8195.00000
    10.8782     8388.00000
    10.8913     8498.00000
    10.9045     8467.00000
    10.9176     8473.00000
    10.9307     8503.00000
    10.9438     8523.00000
    10.9570     8642.00000
    10.9701     8772.00000
    10.9832     8616.00000
    10.9964     8614.00000
    11.0095     8849.00000
    11.0226     8936.00000
    11.0358     8785.00000
    11.0489     8959.00000
    11.0620     9283.00000
    11.0751     9289.00000
    11.0883     9644.00000
    11.1014     9788.00000
    11.1145    10127.00000
    11.1277    10720.00000
    11.1408    11667.00000
    11.1539    12447.00000
    11.1671    13860.00000
    11.1802    16302.00000
    11.1933    20007.00000
    11.2065    25418.00000
    11.2196    35128.00000
    11.2327    48758.00000
    11.2458    63151.00000
    11.2590    76425.00000
    11.2721    78670.00000
    11.2852    71690.00000
    11.2984    59756.00000
    11.3115    43796.00000
    11.3246    30280.00000
    11.3378    20732.00000
    11.3509    15127.00000
    11.3640    11858.00000
    11.3771    10432.00000
    11.3903     9459.00000
    11.4034     9246.00000
    11.4165     9062.00000
    11.4297     8883.00000
    11.4428     8736.00000
    11.4559     8565.00000
    11.4691     8553.00000
    11.4822     8378.00000
    11.4953     8459.00000
    11.5084     8395.00000
    11.5216     8087.00000
    11.5347     8217.00000
    11.5478     8358.00000
    11.5610     8354.00000
    11.5741     8124.00000
    11.5872     7860.00000
    11.6004     8249.00000
    11.6135     8186.00000
    11.6266     8243.00000
    11.6398     8182.00000
    11.6529     8286.00000
    11.6660     8202.00000
    11.6791     8221.00000
    11.6923     8081.00000
    11.7054     7991.00000
    11.7185     8055.00000
    11.7317     8117.00000
    11.7448     8159.00000
    11.7579     8173.00000
    11.7711     8261.00000
    11.7842     8267.00000
    11.7973     8318.00000
    11.8104     8175.00000
    11.8236     8334.00000
    11.8367     8400.00000
    11.8498     8425.00000
    11.8630     8240.00000
    11.8761     8320.00000
    11.8892     8337.00000
    11.9024     8301.00000
    11.9155     8338.00000
    11.9286     8202.00000
    11.9417     8462.00000
    11.9549     8514.00000
    11.9680     8614.00000
    11.9811     8289.00000
    11.9943     8391.00000
    12.0074     8276.00000
    12.0205     8447.00000
    12.0337     8479.00000
    12.0468     8354.00000
    12.0599     8158.00000
    12.0731     8428.00000
    12.0862     8363.00000
    12.0993     8481.00000
    12.1124     8615.00000
    12.1256     8567.00000
    12.1387     8290.00000
    12.1518     8471.00000
    12.1650     8580.00000
    12.1781     8492.00000
    12.1912     8643.00000
    12.2044     8529.00000
    12.2175     8315.00000
    12.2306     8212.00000
    12.2437     8279.00000
    12.2569     8584.00000
    12.2700     8419.00000
    12.2831     8730.00000
    12.2963     8775.00000
    12.3094     8423.00000
    12.3225     8400.00000
    12.3357     8346.00000
    12.3488     8553.00000
    12.3619     8517.00000
    12.3750     8524.00000
    12.3882     8350.00000
    12.4013     8366.00000
    12.4144     8518.00000
    12.4276     8490.00000
    12.4407     8389.00000
    12.4538     8506.00000
    12.4670     8301.00000
    12.4801     8380.00000
    12.4932     8342.00000
    12.5063     8506.00000
    12.5195     8504.00000
    12.5326     8313.00000
    12.5457     8355.00000
    12.5589     8310.00000
    12.5720     8450.00000
    12.5851     8321.00000
    12.5983     8469.00000
    12.6114     8332.00000
    12.6245     8297.00000
    12.6377     8536.00000
    12.6508     8384.00000
    12.6639     8352.00000
    12.6770     8497.00000
    12.6902     8497.00000
    12.7033     8193.00000
    12.7164     8357.00000
    12.7296     8493.00000
    12.7427     8246.00000
    12.7558     8187.00000
    12.7690     8249.00000
    12.7821     8450.00000
    12.7952     8330.00000
    12.8083     8369.00000
    12.8215     8358.00000
    12.8346     8662.00000
    12.8477     8325.00000
    12.8609     8313.00000
    12.8740     8234.00000
    12.8871     8194.00000
    12.9003     8371.00000
    12.9134     8366.00000
    12.9265     8423.00000
    12.9396     8256.00000
    12.9528     8496.00000
    12.9659     8375.00000
    12.9790     8258.00000
    12.9922     8305.00000
    13.0053     8266.00000
    13.0184     8358.00000
    13.0316     8219.00000
    13.0447     8438.00000
    13.0578     8425.00000
    13.0710     8372.00000
    13.0841     8526.00000
    13.0972     8335.00000
    13.1103     8138.00000
    13.1235     8130.00000
    13.1366     8178.00000
    13.1497     8221.00000
    13.1629     8304.00000
    13.1760     8229.00000
    13.1891     8035.00000
    13.2023     8258.00000
    13.2154     8583.00000
    13.2285     8421.00000
    13.2416     8183.00000
    13.2548     8169.00000
    13.2679     8066.00000
    13.2810     8067.00000
    13.2942     8125.00000
    13.3073     8180.00000
    13.3204     8197.00000
    13.3336     8196.00000
    13.3467     8329.00000
    13.3598     8194.00000
    13.3729     8262.00000
    13.3861     8074.00000
    13.3992     8120.00000
    13.4123     8225.00000
    13.4255     8201.00000
    13.4386     8189.00000
    13.4517     8245.00000
    13.4649     8247.00000
    13.4780     8170.00000
    13.4911     8246.00000
    13.5043     8187.00000
    13.5174     8124.00000
    13.5305     8312.00000
    13.5436     8109.00000
    13.5568     7981.00000
    13.5699     8240.00000
    13.5830     8051.00000
    13.5962     8028.00000
    13.6093     8020.00000
    13.6224     8009.00000
    13.6356     8262.00000
    13.6487     8285.00000
    13.6618     8360.00000
    13.6749     8432.00000
    13.6881     8175.00000
    13.7012     8367.00000
    13.7143     8087.00000
    13.7275     8395.00000
    13.7406     8686.00000
    13.7537     8342.00000
    13.7669     8147.00000
    13.7800     8407.00000
    13.7931     8278.00000
    13.8062     8076.00000
    13.8194     8320.00000
    13.8325     8232.00000
    13.8456     8249.00000
    13.8588     8027.00000
    13.8719     8022.00000
    13.8850     8107.00000
    13.8982     8125.00000
    13.9113     8230.00000
    13.9244     8159.00000
    13.9376     8215.00000
    13.9507     8106.00000
    13.9638     8115.00000
    13.9769     8097.00000
    13.9901     7998.00000
    14.0032     8255.00000
    14.0163     8119.00000
    14.0295     8033.00000
    14.0426     7900.00000
    14.0557     8244.00000
    14.0689     8109.00000
    14.0820     8153.00000
    14.0951     8152.00000
    14.1082     8354.00000
    14.1214     8367.00000
    14.1345     8227.00000
    14.1476     8184.00000
    14.1608     8184.00000
    14.1739     8234.00000
    14.1870     8168.00000
    14.2002     8047.00000
    14.2133     8210.00000
    14.2264     8046.00000
    14.2395     8106.00000
    14.2527     8286.00000
    14.2658     8078.00000
    14.2789     8059.00000
    14.2921     8073.00000
    14.3052     8137.00000
    14.3183     8177.00000
    14.3315     8198.00000
    14.3446     8242.00000
    14.3577     8028.00000
    14.3708     8268.00000
    14.3840     8148.00000
    14.3971     8249.00000
    14.4102     8315.00000
    14.4234     8241.00000
    14.4365     8453.00000
    14.4496     8397.00000
    14.4628     8617.00000
    14.4759     8854.00000
    14.4890     9179.00000
    14.5022     9525.00000
    14.5153     9715.00000
    14.5284     9731.00000
    14.5415     9843.00000
    14.5547     9594.00000
    14.5678     9306.00000
    14.5809     8901.00000
    14.5941     8623.00000
    14.6072     8568.00000
    14.6203     8448.00000
    14.6335     8271.00000
    14.6466     8335.00000
    14.6597     8244.00000
    14.6728     8071.00000
    14.6860     8150.00000
    14.6991     8027.00000
    14.7122     8088.00000
    14.7254     7962.00000
    14.7385     8016.00000
    14.7516     8057.00000
    14.7648     7954.00000
    14.7779     8006.00000
    14.7910     8085.00000
    14.8041     8038.00000
    14.8173     8071.00000
    14.8304     7952.00000
    14.8435     8053.00000
    14.8567     7836.00000
    14.8698     8090.00000
    14.8829     8068.00000
    14.8961     8108.00000
    14.9092     7775.00000
    14.9223     8005.00000
    14.9355     8193.00000
    14.9486     8059.00000
    14.9617     8148.00000
    14.9748     8211.00000
    14.9880     8064.00000
    15.0011     7974.00000
    15.0142     7913.00000
    15.0274     7941.00000
    15.0405     7888.00000
    15.0536     8005.00000
    15.0668     7946.00000
    15.0799     8062.00000
    15.0930     7913.00000
    15.1061     7938.00000
    15.1193     7946.00000
    15.1324     7847.00000
    15.1455     8026.00000
    15.1587     7970.00000
    15.1718     7943.00000
    15.1849     7895.00000
    15.1981     8054.00000
    15.2112     7906.00000
    15.2243     8080.00000
    15.2374     8032.00000
    15.2506     7967.00000
    15.2637     8003.00000
    15.2768     7975.00000
    15.2900     8034.00000
    15.3031     7994.00000
    15.3162     8122.00000
    15.3294     8000.00000
    15.3425     7860.00000
    15.3556     8005.00000
    15.3688     7835.00000
    15.3819     7996.00000
    15.3950     7941.00000
    15.4081     8110.00000
    15.4213     8046.00000
    15.4344     7859.00000
    15.4475     7868.00000
    15.4607     7867.00000
    15.4738     7940.00000
    15.4869     7866.00000
    15.5001     7782.00000
    15.5132     7683.00000
    15.5263     8000.00000
    15.5394     7738.00000
    15.5526     7880.00000
    15.5657     7941.00000
    15.5788     7979.00000
    15.5920     7929.00000
    15.6051     7960.00000
    15.6182     7823.00000
    15.6314     8047.00000
    15.6445     7911.00000
    15.6576     7827.00000
    15.6707     7780.00000
    15.6839     7936.00000
    15.6970     7973.00000
    15.7101     8079.00000
    15.7233     7870.00000
    15.7364     7936.00000
    15.7495     7922.00000
    15.7627     7963.00000
    15.7758     7893.00000
    15.7889     7734.00000
    15.8021     7929.00000
    15.8152     7763.00000
    15.8283     7962.00000
    15.8414     7876.00000
    15.8546     7945.00000
    15.8677     7972.00000
    15.8808     7877.00000
    15.8940     7733.00000
    15.9071     7933.00000
    15.9202     8075.00000
    15.9334     8064.00000
    15.9465     7986.00000
    15.9596     7895.00000
    15.9727     7888.00000
    15.9859     7918.00000
    15.9990     7829.00000
    16.0121     8031.00000
    16.0253     8083.00000
    16.0384     8015.00000
    16.0515     7995.00000
    16.0647     7804.00000
    16.0778     7865.00000
    16.0909     7876.00000
    16.1040     8058.00000
    16.1172     7830.00000
    16.1303     7927.00000
    16.1434     7744.00000
    16.1566     7811.00000
    16.1697     7694.00000
    16.1828     7733.00000
    16.1960     7793.00000
    16.2091     7700.00000
    16.2222     7720.00000
    16.2353     8015.00000
    16.2485     7863.00000
    16.2616     7940.00000
    16.2747     7930.00000
    16.2879     7824.00000
    16.3010     7718.00000
    16.3141     7934.00000
    16.3273     7946.00000
    16.3404     7855.00000
    16.3535     8023.00000
    16.3667     7827.00000
    16.3798     7855.00000
    16.3929     7843.00000
    16.4060     7681.00000
    16.4192     7788.00000
    16.4323     7707.00000
    16.4454     7907.00000
    16.4586     7813.00000
    16.4717     7718.00000
    16.4848     7819.00000
    16.4980     8003.00000
    16.5111     7777.00000
    16.5242     7926.00000
    16.5373     7854.00000
    16.5505     7885.00000
    16.5636     7777.00000
    16.5767     7644.00000
    16.5899     7838.00000
    16.6030     7884.00000
    16.6161     7644.00000
    16.6293     7771.00000
    16.6424     7769.00000
    16.6555     7980.00000
    16.6686     7662.00000
    16.6818     7763.00000
    16.6949     7645.00000
    16.7080     7779.00000
    16.7212     7612.00000
    16.7343     7871.00000
    16.7474     7891.00000
    16.7606     8293.00000
    16.7737     8244.00000
    16.7868     8119.00000
    16.8000     8196.00000
    16.8131     8338.00000
    16.8262     8295.00000
    16.8393     8023.00000
    16.8525     7978.00000
    16.8656     7982.00000
    16.8787     7889.00000
    16.8919     7917.00000
    16.9050     7754.00000
    16.9181     7891.00000
    16.9313     7843.00000
    16.9444     7723.00000
    16.9575     7924.00000
    16.9706     7867.00000
    16.9838     7712.00000
    16.9969     7847.00000
    17.0100     7627.00000
    17.0232     7493.00000
    17.0363     7644.00000
    17.0494     7608.00000
    17.0626     7585.00000
    17.0757     7616.00000
    17.0888     7713.00000
    17.1019     7663.00000
    17.1151     7770.00000
    17.1282     7626.00000
    17.1413     7671.00000
    17.1545     7675.00000
    17.1676     7743.00000
    17.1807     7704.00000
    17.1939     7781.00000
    17.2070     7563.00000
    17.2201     7547.00000
    17.2333     7440.00000
    17.2464     7659.00000
    17.2595     7447.00000
    17.2726     7567.00000
    17.2858     7369.00000
    17.2989     7745.00000
    17.3120     7621.00000
    17.3252     7490.00000
    17.3383     7721.00000
    17.3514     7498.00000
    17.3646     7706.00000
    17.3777     7648.00000
    17.3908     7669.00000
    17.4039     7645.00000
    17.4171     7557.00000
    17.4302     7652.00000
    17.4433     7662.00000
    17.4565     7504.00000
    17.4696     7496.00000
    17.4827     7592.00000
    17.4959     7660.00000
    17.5090     7696.00000
    17.5221     7430.00000
    17.5352     7669.00000
    17.5484     7674.00000
    17.5615     7530.00000
    17.5746     7541.00000
    17.5878     7537.00000
    17.6009     7467.00000
    17.6140     7440.00000
    17.6272     7647.00000
    17.6403     7433.00000
    17.6534     7596.00000
    17.6666     7658.00000
    17.6797     7654.00000
    17.6928     7637.00000
    17.7059     7476.00000
    17.7191     7640.00000
    17.7322     7788.00000
    17.7453     7479.00000
    17.7585     7586.00000
    17.7716     7643.00000
    17.7847     7636.00000
    17.7979     7612.00000
    17.8110     7454.00000
    17.8241     7651.00000
    17.8372     7690.00000
    17.8504     7489.00000
    17.8635     7525.00000
    17.8766     7491.00000
    17.8898     7495.00000
    17.9029     7628.00000
    17.9160     7413.00000
    17.9292     7645.00000
    17.9423     7657.00000
    17.9554     7526.00000
    17.9685     7835.00000
    17.9817     7651.00000
    17.9948     7572.00000
    18.0079     7434.00000
    18.0211     7485.00000
    18.0342     7569.00000
    18.0473     7455.00000
    18.0605     7330.00000
    18.0736     7439.00000
    18.0867     7297.00000
    18.0998     7503.00000
    18.1130     7359.00000
    18.1261     7604.00000
    18.1392     7572.00000
    18.1524     7561.00000
    18.1655     7308.00000
    18.1786     7605.00000
    18.1918     7435.00000
    18.2049     7503.00000
    18.2180     7336.00000
    18.2312     7287.00000
    18.2443     7342.00000
    18.2574     7385.00000
    18.2705     7483.00000
    18.2837     7471.00000
    18.2968     7416.00000
    18.3099     7519.00000
    18.3231     7452.00000
    18.3362     7304.00000
    18.3493     7574.00000
    18.3625     7383.00000
    18.3756     7374.00000
    18.3887     7542.00000
    18.4018     7299.00000
    18.4150     7359.00000
    18.4281     7480.00000
    18.4412     7463.00000
    18.4544     7315.00000
    18.4675     7319.00000
    18.4806     7352.00000
    18.4938     7403.00000
    18.5069     7274.00000
    18.5200     7387.00000
    18.5331     7499.00000
    18.5463     7329.00000
    18.5594     7513.00000
    18.5725     7722.00000
    18.5857     7482.00000
    18.5988     7368.00000
    18.6119     7343.00000
    18.6251     7471.00000
    18.6382     7399.00000
    18.6513     7417.00000
    18.6645     7506.00000
    18.6776     7461.00000
    18.6907     7519.00000
    18.7038     7499.00000
    18.7170     7411.00000
    18.7301     7350.00000
    18.7432     7217.00000
    18.7564     7332.00000
    18.7695     7322.00000
    18.7826     7440.00000
    18.7958     7423.00000
    18.8089     7324.00000
    18.8220     7372.00000
    18.8351     7426.00000
    18.8483     7563.00000
    18.8614     7450.00000
    18.8745     7343.00000
    18.8877     7411.00000
    18.9008     7317.00000
    18.9139     7419.00000
    18.9271     7275.00000
    18.9402     7487.00000
