 number  2Theta(deg.)             d(Å)           Q(Å-1)   sin_Th/l (A-1)        1/d (A-1)        wave
--------------------------------------------------------------------------------------------------------------
   1         11.29105          7.83015          0.80244          0.06386          0.12771          1.54056
   2         11.31915          7.83019          0.80243          0.06386          0.12771          1.54439
   3         19.93865          4.44938          1.41215          0.11238          0.22475          1.54056
   4         19.98875          4.44937          1.41215          0.11238          0.22475          1.54439
   5         20.26675          4.37808          1.43515          0.11421          0.22841          1.54056
   6         20.31765          4.37808          1.43515          0.11421          0.22841          1.54439
   7         22.00905          4.03528          1.55706          0.12391          0.24781          1.54056
   8         22.06445          4.03528          1.55706          0.12391          0.24781          1.54439
   9         22.69355          3.91509          1.60487          0.12771          0.25542          1.54056
  10         22.75075          3.91508          1.60487          0.12771          0.25542          1.54439
  11         23.83575          3.73000          1.68450          0.13405          0.26810          1.54056
  12         23.89585          3.73000          1.68450          0.13405          0.26810          1.54439
  13         24.19845          3.67491          1.70975          0.13606          0.27212          1.54056
  14         24.25955          3.67490          1.70976          0.13606          0.27212          1.54439
  15         24.44675          3.63814          1.72703          0.13743          0.27487          1.54056
  16         24.50845          3.63814          1.72703          0.13743          0.27487          1.54439
  17         28.11615          3.17111          1.98138          0.15767          0.31535          1.54056
  18         28.18745          3.17112          1.98138          0.15767          0.31535          1.54439
  19         28.52905          3.12615          2.00988          0.15994          0.31988          1.54056
  20         28.60145          3.12615          2.00988          0.15994          0.31988          1.54439
  21         28.66375          3.11176          2.01917          0.16068          0.32136          1.54056
  22         28.73655          3.11176          2.01917          0.16068          0.32136          1.54439
  23         29.05885          3.07035          2.04641          0.16285          0.32570          1.54056
  24         29.13275          3.07034          2.04641          0.16285          0.32570          1.54439
  25         29.36135          3.03940          2.06725          0.16451          0.32901          1.54056
  26         29.43605          3.03939          2.06725          0.16451          0.32901          1.54439
  27         29.44295          3.03116          2.07286          0.16495          0.32991          1.54056
  28         29.51785          3.03116          2.07287          0.16495          0.32991          1.54439
  29         32.44645          2.75710          2.27891          0.18135          0.36270          1.54056
  30         32.52935          2.75710          2.27891          0.18135          0.36270          1.54439
  31         33.07175          2.70639          2.32161          0.18475          0.36950          1.54056
  32         33.10695          2.70359          2.32402          0.18494          0.36988          1.54056
  33         33.15635          2.70639          2.32161          0.18475          0.36950          1.54439
  34         33.19165          2.70359          2.32402          0.18494          0.36988          1.54439
  35         33.87465          2.64405          2.37635          0.18910          0.37821          1.54056
  36         33.96145          2.64405          2.37635          0.18910          0.37821          1.54439
  37         34.32955          2.61005          2.40730          0.19157          0.38313          1.54056
  38         34.41755          2.61005          2.40730          0.19157          0.38313          1.54439
  39         35.08525          2.55554          2.45865          0.19565          0.39131          1.54056
  40         35.17535          2.55554          2.45865          0.19565          0.39131          1.54439
  41         35.28095          2.54182          2.47193          0.19671          0.39342          1.54056
  42         35.37155          2.54182          2.47193          0.19671          0.39342          1.54439
  43         36.35465          2.46917          2.54465          0.20250          0.40499          1.54056
  44         36.44815          2.46917          2.54465          0.20250          0.40499          1.54439
  45         36.51195          2.45889          2.55529          0.20334          0.40669          1.54056
  46         36.60595          2.45889          2.55529          0.20334          0.40669          1.54439
  47         37.73495          2.38196          2.63782          0.20991          0.41982          1.54056
  48         37.83235          2.38196          2.63782          0.20991          0.41982          1.54439
  49         37.90175          2.37186          2.64905          0.21080          0.42161          1.54056
  50         37.94645          2.36917          2.65206          0.21104          0.42209          1.54056
  51         37.99965          2.37186          2.64905          0.21081          0.42161          1.54439
  52         38.04445          2.36917          2.65206          0.21104          0.42209          1.54439
  53         38.25885          2.35054          2.67308          0.21272          0.42543          1.54056
  54         38.35775          2.35054          2.67308          0.21272          0.42543          1.54439
  55         39.34715          2.28800          2.74615          0.21853          0.43706          1.54056
  56         39.44905          2.28800          2.74615          0.21853          0.43706          1.54439
  57         39.86955          2.25922          2.78114          0.22132          0.44263          1.54056
  58         39.97295          2.25921          2.78114          0.22132          0.44263          1.54439
  59         40.25765          2.23833          2.80709          0.22338          0.44676          1.54056
  60         40.36215          2.23832          2.80710          0.22338          0.44676          1.54439
  61         40.51525          2.22469          2.82430          0.22475          0.44950          1.54056
  62         40.62035          2.22469          2.82430          0.22475          0.44950          1.54439
  63         40.91445          2.20390          2.85094          0.22687          0.45374          1.54056
  64         41.02075          2.20390          2.85094          0.22687          0.45374          1.54439
  65         41.20475          2.18904          2.87029          0.22841          0.45682          1.54056
  66         41.31185          2.18904          2.87029          0.22841          0.45682          1.54439
  67         41.38685          2.17983          2.88242          0.22938          0.45875          1.54056
  68         41.42835          2.17774          2.88519          0.22960          0.45919          1.54056
  69         41.49445          2.17983          2.88242          0.22938          0.45875          1.54439
  70         41.53615          2.17774          2.88519          0.22960          0.45919          1.54439
  71         42.23265          2.13811          2.93867          0.23385          0.46770          1.54056
  72         42.34275          2.13810          2.93867          0.23385          0.46770          1.54439
  73         42.37665          2.13117          2.94823          0.23461          0.46922          1.54056
  74         42.48705          2.13118          2.94822          0.23461          0.46922          1.54439
  75         43.69865          2.06972          3.03577          0.24158          0.48316          1.54056
  76         43.76915          2.06655          3.04043          0.24195          0.48390          1.54056
  77         43.81285          2.06972          3.03577          0.24158          0.48316          1.54439
  78         43.88365          2.06654          3.04043          0.24195          0.48390          1.54439
  79         44.25615          2.04493          3.07257          0.24451          0.48901          1.54056
  80         44.37205          2.04493          3.07257          0.24451          0.48902          1.54439
  81         44.88715          2.01764          3.11413          0.24781          0.49563          1.54056
  82         45.00485          2.01764          3.11413          0.24781          0.49563          1.54439
  83         46.34415          1.95754          3.20974          0.25542          0.51085          1.54056
  84         46.35555          1.95708          3.21048          0.25548          0.51096          1.54056
  85         46.46615          1.95754          3.20974          0.25542          0.51085          1.54439
  86         46.47755          1.95709          3.21048          0.25548          0.51096          1.54439
  87         47.69845          1.90507          3.29814          0.26246          0.52491          1.54056
  88         47.76715          1.90249          3.30261          0.26281          0.52563          1.54056
  89         47.82435          1.90507          3.29813          0.26246          0.52491          1.54439
  90         47.89335          1.90249          3.30261          0.26281          0.52563          1.54439
  91         48.02435          1.89290          3.31934          0.26414          0.52829          1.54056
  92         48.14065          1.88860          3.32690          0.26475          0.52949          1.54056
  93         48.15125          1.89290          3.31934          0.26414          0.52829          1.54439
  94         48.26795          1.88860          3.32690          0.26475          0.52949          1.54439
  95         48.43575          1.87778          3.34607          0.26627          0.53254          1.54056
  96         48.54965          1.87364          3.35346          0.26686          0.53372          1.54056
  97         48.56385          1.87778          3.34606          0.26627          0.53254          1.54439
  98         48.67815          1.87364          3.35346          0.26686          0.53372          1.54439
  99         48.78915          1.86500          3.36900          0.26810          0.53619          1.54056
 100         48.91845          1.86500          3.36900          0.26810          0.53619          1.54439
 101         49.34085          1.84543          3.40472          0.27094          0.54188          1.54056
 102         49.47175          1.84543          3.40472          0.27094          0.54188          1.54439
 103         49.47815          1.84063          3.41360          0.27165          0.54329          1.54056
 104         49.48895          1.84026          3.41430          0.27170          0.54340          1.54056
 105         49.56945          1.83746          3.41950          0.27212          0.54423          1.54056
 106         49.60945          1.84063          3.41360          0.27165          0.54329          1.54439
 107         49.62035          1.84025          3.41430          0.27170          0.54340          1.54439
 108         49.70105          1.83746          3.41950          0.27212          0.54423          1.54439
 109         49.77845          1.83023          3.43300          0.27319          0.54638          1.54056
 110         49.91065          1.83023          3.43300          0.27319          0.54638          1.54439
 111         50.10485          1.81907          3.45407          0.27487          0.54973          1.54056
 112         50.22665          1.81494          3.46192          0.27549          0.55098          1.54056
 113         50.23805          1.81907          3.45407          0.27487          0.54973          1.54439
 114         50.36025          1.81494          3.46192          0.27549          0.55098          1.54439
 115         50.76915          1.79681          3.49685          0.27827          0.55654          1.54056
 116         50.83485          1.79465          3.50107          0.27861          0.55721          1.54056
 117         50.90445          1.79681          3.49685          0.27827          0.55654          1.54439
 118         50.97025          1.79465          3.50107          0.27861          0.55721          1.54439
 119         51.06025          1.78725          3.51556          0.27976          0.55952          1.54056
 120         51.19635          1.78725          3.51556          0.27976          0.55952          1.54439
 121         51.78165          1.76404          3.56182          0.28344          0.56688          1.54056
 122         51.81195          1.76308          3.56376          0.28360          0.56719          1.54056
 123         51.90485          1.76014          3.56971          0.28407          0.56814          1.54056
 124         51.91995          1.76404          3.56182          0.28344          0.56688          1.54439
 125         51.95035          1.76308          3.56376          0.28360          0.56719          1.54439
 126         52.02165          1.75646          3.57719          0.28466          0.56933          1.54056
 127         52.04355          1.76014          3.56971          0.28407          0.56814          1.54439
 128         52.16075          1.75646          3.57719          0.28466          0.56933          1.54439
 129         52.16465          1.75198          3.58633          0.28539          0.57078          1.54056
 130         52.30415          1.75198          3.58633          0.28539          0.57078          1.54439
 131         52.55945          1.73975          3.61155          0.28740          0.57480          1.54056
 132         52.70015          1.73975          3.61155          0.28740          0.57480          1.54439
 133         52.70495          1.73529          3.62083          0.28814          0.57627          1.54056
 134         52.84605          1.73529          3.62083          0.28814          0.57627          1.54439
 135         52.95595          1.72765          3.63684          0.28941          0.57882          1.54056
 136         53.04245          1.72504          3.64235          0.28985          0.57970          1.54056
 137         53.09785          1.72765          3.63683          0.28941          0.57882          1.54439
 138         53.18465          1.72504          3.64235          0.28985          0.57970          1.54439
 139         53.49745          1.71143          3.67130          0.29215          0.58431          1.54056
 140         53.64105          1.71144          3.67130          0.29215          0.58430          1.54439
 141         54.15105          1.69231          3.71278          0.29545          0.59091          1.54056
 142         54.17525          1.69161          3.71432          0.29558          0.59115          1.54056
 143         54.29665          1.69231          3.71278          0.29545          0.59091          1.54439
 144         54.32095          1.69161          3.71431          0.29558          0.59115          1.54439
 145         55.57455          1.65229          3.80272          0.30261          0.60522          1.54056
 146         55.72475          1.65229          3.80272          0.30261          0.60522          1.54439
 147         56.04795          1.63945          3.83250          0.30498          0.60996          1.54056
 148         56.13075          1.63723          3.83770          0.30539          0.61079          1.54056
 149         56.19955          1.63945          3.83249          0.30498          0.60996          1.54439
 150         56.28275          1.63722          3.83770          0.30539          0.61079          1.54439
 151         56.44385          1.62888          3.85735          0.30696          0.61392          1.54056
 152         56.59675          1.62889          3.85735          0.30696          0.61392          1.54439
 153         56.67235          1.62286          3.87168          0.30810          0.61620          1.54056
 154         56.82605          1.62286          3.87168          0.30810          0.61620          1.54439
 155         56.83485          1.61860          3.88186          0.30891          0.61782          1.54056
 156         56.84885          1.61824          3.88273          0.30898          0.61796          1.54056
 157         56.98905          1.61860          3.88186          0.30891          0.61782          1.54439
 158         56.99435          1.61445          3.89184          0.30970          0.61941          1.54056
 159         57.00315          1.61824          3.88274          0.30898          0.61796          1.54439
 160         57.14915          1.61445          3.89184          0.30970          0.61941          1.54439
 161         57.30205          1.60651          3.91107          0.31123          0.62247          1.54056
 162         57.45775          1.60651          3.91107          0.31123          0.62247          1.54439
 163         57.45785          1.60253          3.92080          0.31201          0.62401          1.54056
 164         57.61405          1.60253          3.92080          0.31201          0.62401          1.54439
 165         58.13115          1.58556          3.96276          0.31535          0.63069          1.54056
 166         58.14085          1.58532          3.96337          0.31539          0.63079          1.54056
 167         58.28955          1.58556          3.96276          0.31535          0.63069          1.54439
 168         58.29925          1.58532          3.96336          0.31539          0.63079          1.54439
 169         58.72155          1.57102          3.99944          0.31827          0.63653          1.54056
 170         58.80235          1.56905          4.00446          0.31866          0.63733          1.54056
 171         58.81445          1.56875          4.00521          0.31872          0.63745          1.54056
 172         58.88185          1.57102          3.99944          0.31827          0.63653          1.54439
 173         58.92685          1.56603          4.01217          0.31928          0.63856          1.54056
 174         58.96295          1.56905          4.00446          0.31866          0.63733          1.54439
 175         58.97505          1.56876          4.00520          0.31872          0.63745          1.54439
 176         59.02045          1.56377          4.01797          0.31974          0.63948          1.54056
 177         59.04935          1.56307          4.01976          0.31988          0.63977          1.54056
 178         59.08785          1.56603          4.01217          0.31928          0.63856          1.54439
 179         59.11665          1.56145          4.02393          0.32021          0.64043          1.54056
 180         59.18185          1.56377          4.01798          0.31974          0.63948          1.54439
 181         59.21075          1.56307          4.01976          0.31988          0.63977          1.54439
 182         59.27825          1.56146          4.02393          0.32021          0.64043          1.54439
 183         59.29055          1.55729          4.03469          0.32107          0.64214          1.54056
